#Wavelength	Transmission
1.3968460000	0.0188350700
1.3972330000	0.0184669600
1.3976210000	0.0180988500
1.3980080000	0.0177307400
1.3983950000	0.0173626200
1.3987830000	0.0169945100
1.3991700000	0.0166264000
1.3995580000	0.0162582900
1.3999450000	0.0158901700
1.4003320000	0.0155220600
1.4007200000	0.0151539500
1.4011070000	0.0147858400
1.4014940000	0.0144177300
1.4018820000	0.0140496100
1.4022690000	0.0136815000
1.4026570000	0.0133133900
1.4030440000	0.0129452800
1.4034310000	0.0125771700
1.4038190000	0.0122090500
1.4042060000	0.0118409400
1.4045930000	0.0114728300
1.4049810000	0.0111047200
1.4053680000	0.0107366000
1.4057560000	0.0103684900
1.4061430000	0.0100003800
1.4065300000	0.0096322680
1.4069180000	0.0092641560
1.4073050000	0.0088960440
1.4076920000	0.0085279320
1.4080800000	0.0081598200
1.4084670000	0.0077917070
1.4088550000	0.0074235950
1.4092420000	0.0070554830
1.4096290000	0.0066873710
1.4100170000	0.0063192590
1.4104040000	0.0059511470
1.4107910000	0.0055830340
1.4111790000	0.0052149220
1.4115660000	0.0048468100
1.4119540000	0.0044786980
1.4123410000	0.0041105860
1.4127280000	0.0037424740
1.4131160000	0.0033743610
1.4135030000	0.0030062490
1.4138900000	0.0026381370
1.4142780000	0.0022700250
1.4146650000	0.0019019130
1.4150530000	0.0015338010
1.4154400000	0.0011656890
1.4154420000	0.1120288000
1.4158290000	0.1116607000
1.4162160000	0.1112926000
1.4166040000	0.1109245000
1.4169890000	-0.0003067601
1.4173770000	-0.0006748723
1.4177640000	-0.0010429840
1.4181520000	-0.0014110970
1.4185390000	-0.0017792090
1.4189260000	-0.0021473210
1.4193140000	-0.0025154330
1.4197010000	-0.0028835450
1.4200880000	-0.0032516570
1.4204760000	-0.0036197700
1.4208630000	-0.0039878820
1.4212510000	-0.0043559940
1.4216380000	-0.0047241060
1.4220250000	-0.0050922180
1.4224130000	-0.0054603300
1.4228000000	-0.0058284430
1.4231880000	-0.0061965550
1.4235750000	-0.0065646670
1.4239620000	-0.0069327790
1.4243500000	-0.0073008910
1.4247370000	-0.0076690030
1.4251240000	-0.0080371160
1.4255120000	-0.0084052280
1.4258990000	-0.0087733400
1.4262870000	-0.0091414520
1.4266740000	-0.0095095640
1.4270610000	-0.0098776760
1.4274490000	-0.0102457900
1.4278360000	-0.0106139000
1.4282230000	-0.0109820100
1.4286110000	-0.0113501200
1.4289980000	-0.0117182400
1.4293860000	-0.0120863500
1.4297730000	-0.0124544600
1.4301600000	-0.0128225700
1.4305480000	-0.0131906900
1.4309350000	-0.0135588000
1.4313220000	-0.0139269100
1.4317100000	-0.0142950200
1.4320970000	-0.0146631300
1.4324850000	-0.0150312500
1.4328720000	-0.0153993600
1.4332590000	-0.0157674700
1.4336470000	-0.0161355800
1.4340340000	-0.0165037000
1.4344210000	-0.0168718100
1.4348090000	-0.0172399200
1.4351960000	-0.0176080300
1.4355840000	-0.0179761400
1.4359710000	-0.0183442600
1.4363580000	-0.0187123700
1.4367460000	-0.0190804800
1.4371330000	-0.0194485900
1.4375200000	-0.0198167000
1.4375220000	0.0910464100
1.4379100000	0.0906783000
1.4382970000	0.0903101800
1.4386840000	0.0899420700
1.4390720000	0.0895739600
1.4394590000	0.0892058500
1.4398460000	0.0888377300
1.4398480000	0.1997008000
1.4402360000	0.1993327000
1.4406230000	0.1989646000
1.4410100000	0.1985965000
1.4413980000	0.1982284000
1.4417850000	0.1978603000
1.4421720000	0.1974922000
1.4425600000	0.1971241000
1.4429470000	0.1967560000
1.4433350000	0.1963878000
1.4437220000	0.1960197000
1.4437240000	0.3068828000
1.4441110000	0.3065147000
1.4444980000	0.3061466000
1.4445000000	0.4170097000
1.4448870000	0.4166416000
1.4452750000	0.4162735000
1.4452770000	0.5271366000
1.4456640000	0.5267685000
1.4460510000	0.5264004000
1.4464390000	0.5260323000
1.4468260000	0.5256642000
1.4472130000	0.5252961000
1.4476010000	0.5249279000
1.4476030000	0.6357911000
1.4479900000	0.6354229000
1.4483770000	0.6350548000
1.4483790000	0.7459179000
1.4487660000	0.7455498000
1.4491540000	0.7451817000
1.4495410000	0.7448136000
1.4495430000	0.8556767000
1.4499300000	0.8553086000
1.4503180000	0.8549405000
1.4503190000	0.9658036000
1.4507070000	0.9654355000
1.4510940000	0.9650674000
1.4510960000	1.0759300000
1.4514830000	1.0755620000
1.4514850000	1.1864250000
1.4518720000	1.1860570000
1.4522600000	1.1856890000
1.4522610000	1.2965520000
1.4526490000	1.2961840000
1.4530360000	1.2958160000
1.4530380000	1.4066790000
1.4534250000	1.4063110000
1.4534270000	1.5171740000
1.4538140000	1.5168060000
1.4538160000	1.6276690000
1.4542030000	1.6273010000
1.4542050000	1.7381640000
1.4545930000	1.7377960000
1.4545940000	1.8486590000
1.4549820000	1.8482910000
1.4549830000	1.9591540000
1.4553710000	1.9587860000
1.4557580000	1.9584180000
1.4557600000	2.0692810000
1.4557620000	2.1801440000
1.4561490000	2.1797760000
1.4561510000	2.2906390000
1.4565380000	2.2902710000
1.4565400000	2.4011340000
1.4565410000	2.5119970000
1.4569290000	2.5116290000
1.4569310000	2.6224920000
1.4573180000	2.6221240000
1.4573200000	2.7329870000
1.4577070000	2.7326190000
1.4577090000	2.8434820000
1.4577100000	2.9543460000
1.4580980000	2.9539770000
1.4581000000	3.0648410000
1.4584890000	3.1753360000
1.4584900000	3.2861990000
1.4588780000	3.2858310000
1.4588810000	3.5075570000
1.4588830000	3.6184200000
1.4592700000	3.6180520000
1.4592720000	3.7289150000
1.4592740000	3.8397780000
1.4596610000	3.8394100000
1.4596640000	4.0611360000
1.4600520000	4.0607680000
1.4600550000	4.2824940000
1.4604430000	4.2821260000
1.4604460000	4.5038520000
1.4604480000	4.6147150000
1.4608350000	4.6143470000
1.4608390000	4.8360740000
1.4608400000	4.9469370000
1.4612280000	4.9465690000
1.4612290000	5.0574320000
1.4612310000	5.1682950000
1.4616190000	5.1679270000
1.4616220000	5.3896530000
1.4620090000	5.3892850000
1.4620130000	5.6110110000
1.4620150000	5.7218740000
1.4624020000	5.7215060000
1.4624070000	6.0540950000
1.4624090000	6.1649580000
1.4627960000	6.1645900000
1.4628010000	6.4971800000
1.4628030000	6.6080430000
1.4631900000	6.6076750000
1.4631970000	7.0511270000
1.4631990000	7.1619900000
1.4635860000	7.1616220000
1.4635930000	7.6050750000
1.4635950000	7.7159380000
1.4639820000	7.7155700000
1.4639870000	8.0481590000
1.4639890000	8.1590220000
1.4643770000	8.1586540000
1.4643800000	8.3803800000
1.4643820000	8.4912430000
1.4647690000	8.4908750000
1.4647740000	8.8234640000
1.4651620000	8.8230960000
1.4651720000	9.4882750000
1.4651740000	9.5991380000
1.4655610000	9.5987700000
1.4655640000	9.8204960000
1.4655660000	9.9313590000
1.4659540000	9.9309910000
1.4659600000	10.3744400000
1.4659640000	10.5961700000
1.4663510000	10.5958000000
1.4663620000	11.2609800000
1.4663630000	11.3718400000
1.4663650000	11.4827100000
1.4667520000	11.4823400000
1.4667590000	11.9257900000
1.4667630000	12.1475200000
1.4667640000	12.2583800000
1.4671520000	12.2580100000
1.4671550000	12.4797400000
1.4671570000	12.5906000000
1.4675440000	12.5902300000
1.4675480000	12.8119600000
1.4675490000	12.9228200000
1.4679370000	12.9224500000
1.4679450000	13.4767700000
1.4679470000	13.5876300000
1.4683350000	13.5872700000
1.4683430000	14.1415800000
1.4683450000	14.2524400000
1.4687320000	14.2520800000
1.4687420000	14.9172500000
1.4687440000	15.0281200000
1.4687460000	15.1389800000
1.4691330000	15.1386100000
1.4691420000	15.6929300000
1.4691440000	15.8037900000
1.4691450000	15.9146500000
1.4695330000	15.9142900000
1.4695400000	16.3577400000
1.4695430000	16.5794600000
1.4699300000	16.5791000000
1.4699390000	17.1334100000
1.4699420000	17.3551400000
1.4703300000	17.3547700000
1.4703350000	17.6873600000
1.4703370000	17.7982200000
1.4707240000	17.7978500000
1.4707290000	18.1304400000
1.4707310000	18.2413100000
1.4711180000	18.2409400000
1.4711270000	18.7952500000
1.4711290000	18.9061200000
1.4715160000	18.9057500000
1.4715280000	19.6817900000
1.4715300000	19.7926500000
1.4719170000	19.7922900000
1.4719240000	20.2357400000
1.4719260000	20.3466000000
1.4723130000	20.3462300000
1.4723200000	20.7896900000
1.4723230000	21.0114100000
1.4723250000	21.1222800000
1.4727120000	21.1219100000
1.4727210000	21.6762200000
1.4727240000	21.8979500000
1.4731120000	21.8975800000
1.4731200000	22.4519000000
1.4731220000	22.5627600000
1.4735100000	22.5623900000
1.4735160000	23.0058400000
1.4735180000	23.1167100000
1.4735200000	23.2275700000
1.4739070000	23.2272000000
1.4739120000	23.5597900000
1.4739140000	23.6706500000
1.4739160000	23.7815200000
1.4743030000	23.7811500000
1.4743100000	24.2246000000
1.4746970000	24.2242300000
1.4747080000	24.8894100000
1.4747090000	25.0002800000
1.4750970000	24.9999100000
1.4751050000	25.5542200000
1.4754930000	25.5538600000
1.4755010000	26.1081700000
1.4755030000	26.2190300000
1.4758900000	26.2186700000
1.4759010000	26.8838400000
1.4759030000	26.9947100000
1.4759040000	27.1055700000
1.4762920000	27.1052000000
1.4762980000	27.5486600000
1.4766860000	27.5482900000
1.4766910000	27.8808800000
1.4766930000	27.9917400000
1.4766940000	28.1026000000
1.4770820000	28.1022300000
1.4770890000	28.5456900000
1.4770900000	28.6565500000
1.4774780000	28.6561800000
1.4774900000	29.4322200000
1.4774920000	29.5430900000
1.4778790000	29.5427200000
1.4778880000	30.0970300000
1.4778890000	30.2079000000
1.4778910000	30.3187600000
1.4782780000	30.3183900000
1.4782850000	30.7618400000
1.4786730000	30.7614800000
1.4786850000	31.5375200000
1.4786900000	31.8701100000
1.4790770000	31.8697400000
1.4790860000	32.4240600000
1.4794730000	32.4236900000
1.4794800000	32.8671400000
1.4794820000	32.9780000000
1.4798690000	32.9776300000
1.4798760000	33.4210900000
1.4798780000	33.5319500000
1.4802650000	33.5315800000
1.4802750000	34.1967600000
1.4806630000	34.1963900000
1.4806750000	34.9724300000
1.4806780000	35.1941600000
1.4810660000	35.1937900000
1.4810780000	35.9698300000
1.4810790000	36.0807000000
1.4814670000	36.0803300000
1.4814800000	36.9672300000
1.4814820000	37.0781000000
1.4818690000	37.0777300000
1.4818850000	38.0755000000
1.4818870000	38.1863600000
1.4818880000	38.2972200000
1.4822760000	38.2968600000
1.4822900000	39.1837600000
1.4826770000	39.1833900000
1.4826870000	39.8485700000
1.4826890000	39.9594300000
1.4830760000	39.9590700000
1.4830800000	40.1807900000
1.4830810000	40.2916600000
1.4834690000	40.2912900000
1.4834740000	40.6238800000
1.4838610000	40.6235100000
1.4838790000	41.7321400000
1.4838840000	42.0647300000
1.4842710000	42.0643600000
1.4842880000	43.1729900000
1.4846760000	43.1726200000
1.4846930000	44.2812500000
1.4846950000	44.3921200000
1.4846960000	44.5029800000
1.4850840000	44.5026100000
1.4851030000	45.7221100000
1.4851040000	45.8329700000
1.4851060000	45.9438300000
1.4854930000	45.9434700000
1.4855050000	46.7195100000
1.4855090000	46.9412300000
1.4858960000	46.9408700000
1.4859060000	47.6060400000
1.4859080000	47.7169100000
1.4862960000	47.7165400000
1.4863080000	48.4925800000
1.4866950000	48.4922100000
1.4867070000	49.2682500000
1.4867090000	49.3791200000
1.4870960000	49.3787500000
1.4871130000	50.4873800000
1.4871150000	50.5982400000
1.4875020000	50.5978800000
1.4875230000	51.9282300000
1.4875250000	52.0391000000
1.4875260000	52.1499600000
1.4879140000	52.1495900000
1.4879360000	53.5908100000
1.4879380000	53.7016700000
1.4879400000	53.8125400000
1.4883270000	53.8121700000
1.4883440000	54.9208000000
1.4883460000	55.0316600000
1.4887330000	55.0313000000
1.4887450000	55.8073400000
1.4887490000	56.0290600000
1.4891360000	56.0287000000
1.4891500000	56.9156000000
1.4891510000	57.0264600000
1.4895390000	57.0261000000
1.4895630000	58.5781800000
1.4899500000	58.5778100000
1.4899640000	59.4647200000
1.4899660000	59.5755800000
1.4903530000	59.5752100000
1.4903740000	60.9055700000
1.4903770000	61.1272900000
1.4907650000	61.1269300000
1.4907850000	62.4572800000
1.4907870000	62.5681500000
1.4911740000	62.5677800000
1.4911910000	63.6764100000
1.4911930000	63.7872700000
1.4915810000	63.7869000000
1.4915940000	64.6738100000
1.4919820000	64.6734400000
1.4919970000	65.6712100000
1.4919990000	65.7820700000
1.4923860000	65.7817000000
1.4924030000	66.8903400000
1.4924050000	67.0012000000
1.4927920000	67.0008300000
1.4928110000	68.2203200000
1.4931990000	68.2199600000
1.4932160000	69.3285900000
1.4936030000	69.3282200000
1.4936170000	70.2151200000
1.4936190000	70.3259900000
1.4936200000	70.4368500000
1.4940080000	70.4364800000
1.4940270000	71.6559800000
1.4944140000	71.6556100000
1.4944310000	72.7642400000
1.4948190000	72.7638700000
1.4948320000	73.6507800000
1.4948340000	73.7616400000
1.4952220000	73.7612700000
1.4952320000	74.4264500000
1.4952340000	74.5373100000
1.4956210000	74.5369500000
1.4956300000	75.0912600000
1.4956310000	75.2021200000
1.4960190000	75.2017600000
1.4960310000	75.9778000000
1.4960320000	76.0886600000
1.4964200000	76.0882900000
1.4964330000	76.9752000000
1.4964350000	77.0860600000
1.4968230000	77.0856900000
1.4968360000	77.9726000000
1.4968380000	78.0834600000
1.4972250000	78.0830900000
1.4972430000	79.1917200000
1.4972440000	79.3025900000
1.4976320000	79.3022200000
1.4976420000	79.9674000000
1.4976440000	80.0782600000
1.4980310000	80.0778900000
1.4980360000	80.4104800000
1.4980400000	80.6322100000
1.4984270000	80.6318400000
1.4984320000	80.9644300000
1.4984340000	81.0752900000
1.4988210000	81.0749200000
1.4988230000	81.1857900000
1.4992100000	81.1854200000
1.4992170000	81.6288700000
1.4992190000	81.7397300000
1.4996060000	81.7393700000
1.4996150000	82.2936800000
1.5000020000	82.2933100000
1.5000180000	83.2910800000
1.5004050000	83.2907100000
1.5004170000	84.0667600000
1.5004190000	84.1776200000
1.5008060000	84.1772500000
1.5008130000	84.6207000000
1.5012010000	84.6203400000
1.5012060000	84.9529200000
1.5012070000	85.0637900000
1.5015950000	85.0634200000
1.5015980000	85.2851500000
1.5019860000	85.2847800000
1.5019870000	85.3956400000
1.5019890000	85.5065000000
1.5023760000	85.5061400000
1.5023800000	85.7278600000
1.5023820000	85.8387300000
1.5027690000	85.8383600000
1.5027740000	86.1709500000
1.5031610000	86.1705800000
1.5031670000	86.5031700000
1.5035540000	86.5028000000
1.5035590000	86.8353900000
1.5035610000	86.9462500000
1.5039480000	86.9458800000
1.5039500000	87.0567500000
1.5039520000	87.1676100000
1.5043390000	87.1672400000
1.5043410000	87.2781100000
1.5047280000	87.2777400000
1.5047300000	87.3886000000
1.5047320000	87.4994600000
1.5051190000	87.4991000000
1.5051210000	87.6099600000
1.5055080000	87.6095900000
1.5058950000	87.6092200000
1.5058970000	87.7200900000
1.5062850000	87.7197200000
1.5062860000	87.8305800000
1.5066740000	87.8302100000
1.5066750000	87.9410800000
1.5066770000	88.0519400000
1.5070640000	88.0515700000
1.5070660000	88.1624300000
1.5074540000	88.1620700000
1.5074550000	88.2729300000
1.5078430000	88.2725600000
1.5082300000	88.2721900000
1.5086170000	88.2718200000
1.5086190000	88.3826900000
1.5090060000	88.3823200000
1.5090080000	88.4931800000
1.5093960000	88.4928100000
1.5093970000	88.6036800000
1.5097850000	88.6033100000
1.5097860000	88.7141700000
1.5101740000	88.7138000000
1.5101750000	88.8246700000
1.5105630000	88.8243000000
1.5109500000	88.8239300000
1.5113380000	88.8235600000
1.5117250000	88.8231900000
1.5117270000	88.9340600000
1.5121140000	88.9336900000
1.5121160000	89.0445500000
1.5125030000	89.0441800000
1.5128910000	89.0438200000
1.5128920000	89.1546800000
1.5132800000	89.1543100000
1.5136670000	89.1539400000
1.5140530000	89.0427100000
1.5144400000	89.0423400000
1.5148270000	89.0419800000
1.5152150000	89.0416100000
1.5156020000	89.0412400000
1.5156040000	89.1521000000
1.5156060000	89.2629700000
1.5159930000	89.2626000000
1.5159950000	89.3734600000
1.5163820000	89.3730900000
1.5163840000	89.4839600000
1.5167710000	89.4835900000
1.5171570000	89.3723600000
1.5175440000	89.3719900000
1.5179300000	89.2607600000
1.5183170000	89.2603900000
1.5183190000	89.3712500000
1.5187060000	89.3708800000
1.5187080000	89.4817500000
1.5190950000	89.4813800000
1.5190970000	89.5922400000
1.5194850000	89.5918700000
1.5198720000	89.5915100000
1.5198740000	89.7023700000
1.5198750000	89.8132300000
1.5202630000	89.8128600000
1.5206470000	89.5907700000
1.5210340000	89.5904000000
1.5214200000	89.4791700000
1.5218050000	89.3679400000
1.5221910000	89.2567100000
1.5225770000	89.1454800000
1.5229620000	89.0342500000
1.5229640000	89.1451100000
1.5233460000	88.8121500000
1.5237320000	88.7009200000
1.5241180000	88.5896900000
1.5245050000	88.5893200000
1.5248890000	88.3672300000
1.5252760000	88.3668600000
1.5256590000	88.0339000000
1.5260460000	88.0335300000
1.5264320000	87.9223000000
1.5264330000	88.0331600000
1.5268150000	87.7002100000
1.5272030000	87.6998400000
1.5275890000	87.5886100000
1.5279720000	87.3665100000
1.5283600000	87.3661500000
1.5283620000	87.4770100000
1.5287420000	87.0331900000
1.5291260000	86.8110900000
1.5295120000	86.6998600000
1.5295130000	86.8107300000
1.5295150000	86.9215900000
1.5298940000	86.3669000000
1.5302800000	86.2556700000
1.5306630000	86.0335800000
1.5310470000	85.8114800000
1.5310490000	85.9223500000
1.5310510000	86.0332100000
1.5314300000	85.4785300000
1.5318150000	85.3673000000
1.5321990000	85.1452000000
1.5325850000	85.0339700000
1.5325870000	85.1448300000
1.5329650000	84.5901500000
1.5333510000	84.4789200000
1.5337370000	84.3676900000
1.5337380000	84.4785500000
1.5341190000	84.0347300000
1.5345050000	83.9235000000
1.5348870000	83.5905400000
1.5352730000	83.4793100000
1.5352740000	83.5901700000
1.5356550000	83.1463500000
1.5360420000	83.1459800000
1.5364260000	82.9238900000
1.5364280000	83.0347500000
1.5368080000	82.5909300000
1.5371940000	82.4797000000
1.5375780000	82.2576100000
1.5379600000	81.9246500000
1.5383460000	81.8134200000
1.5383470000	81.9242800000
1.5383490000	82.0351400000
1.5387280000	81.4804600000
1.5387300000	81.5913200000
1.5387310000	81.7021900000
1.5391120000	81.2583700000
1.5394980000	81.1471400000
1.5398820000	80.9250400000
1.5402690000	80.9246700000
1.5406550000	80.8134400000
1.5406560000	80.9243100000
1.5410370000	80.4804800000
1.5414240000	80.4801200000
1.5414260000	80.5909800000
1.5418080000	80.2580200000
1.5421950000	80.2576500000
1.5425810000	80.1464200000
1.5429690000	80.1460500000
1.5433540000	80.0348200000
1.5437400000	79.9235900000
1.5441270000	79.9232200000
1.5445130000	79.8119900000
1.5449000000	79.8116200000
1.5449020000	79.9224900000
1.5452840000	79.5895300000
1.5456720000	79.5891600000
1.5460590000	79.5887900000
1.5460610000	79.6996600000
1.5464480000	79.6992900000
1.5468350000	79.6989200000
1.5472230000	79.6985500000
1.5472240000	79.8094200000
1.5476120000	79.8090500000
1.5479980000	79.6978200000
1.5480010000	79.9195400000
1.5483880000	79.9191700000
1.5483900000	80.0300400000
1.5487770000	80.0296700000
1.5491650000	80.0293000000
1.5495520000	80.0289300000
1.5495540000	80.1398000000
1.5499410000	80.1394300000
1.5503290000	80.1390600000
1.5507160000	80.1386900000
1.5511030000	80.1383200000
1.5511050000	80.2491900000
1.5514930000	80.2488200000
1.5518800000	80.2484500000
1.5518820000	80.3593100000
1.5522690000	80.3589500000
1.5522710000	80.4698100000
1.5526580000	80.4694400000
1.5526600000	80.5803000000
1.5530470000	80.5799400000
1.5530490000	80.6908000000
1.5534360000	80.6904300000
1.5534380000	80.8012900000
1.5538250000	80.8009300000
1.5538290000	81.0226500000
1.5542160000	81.0222800000
1.5542180000	81.1331500000
1.5542200000	81.2440100000
1.5546070000	81.2436400000
1.5546090000	81.3545100000
1.5549960000	81.3541400000
1.5549980000	81.4650000000
1.5553850000	81.4646300000
1.5553890000	81.6863600000
1.5557760000	81.6859900000
1.5557780000	81.7968500000
1.5561650000	81.7964900000
1.5561670000	81.9073500000
1.5561690000	82.0182100000
1.5565560000	82.0178400000
1.5565580000	82.1287100000
1.5569450000	82.1283400000
1.5569470000	82.2392000000
1.5573340000	82.2388300000
1.5573360000	82.3497000000
1.5577230000	82.3493300000
1.5577250000	82.4601900000
1.5581120000	82.4598200000
1.5581140000	82.5706900000
1.5581160000	82.6815500000
1.5585030000	82.6811800000
1.5585070000	82.9029100000
1.5588940000	82.9025400000
1.5588970000	83.1242700000
1.5588990000	83.2351300000
1.5592860000	83.2347600000
1.5592880000	83.3456200000
1.5596760000	83.3452600000
1.5596770000	83.4561200000
1.5600650000	83.4557500000
1.5600680000	83.6774800000
1.5604550000	83.6771100000
1.5604570000	83.7879700000
1.5608450000	83.7876000000
1.5608460000	83.8984700000
1.5608480000	84.0093300000
1.5612350000	84.0089600000
1.5612370000	84.1198300000
1.5616240000	84.1194600000
1.5616260000	84.2303200000
1.5620140000	84.2299500000
1.5620150000	84.3408200000
1.5624030000	84.3404500000
1.5624060000	84.5621700000
1.5627930000	84.5618100000
1.5627950000	84.6726700000
1.5627970000	84.7835300000
1.5631840000	84.7831600000
1.5635720000	84.7828000000
1.5635730000	84.8936600000
1.5635750000	85.0045200000
1.5639620000	85.0041500000
1.5643500000	85.0037900000
1.5643520000	85.1146500000
1.5647390000	85.1142800000
1.5647410000	85.2251400000
1.5651280000	85.2247800000
1.5651300000	85.3356400000
1.5655170000	85.3352700000
1.5655210000	85.5570000000
1.5659080000	85.5566300000
1.5659110000	85.7783500000
1.5662990000	85.7779900000
1.5663000000	85.8888500000
1.5663020000	85.9997100000
1.5666900000	85.9993400000
1.5666910000	86.1102100000
1.5670790000	86.1098400000
1.5674660000	86.1094700000
1.5678530000	86.1091000000
1.5678550000	86.2199700000
1.5682420000	86.2196000000
1.5682440000	86.3304600000
1.5686320000	86.3300900000
1.5690190000	86.3297300000
1.5690210000	86.4405900000
1.5694080000	86.4402200000
1.5697950000	86.4398500000
1.5697970000	86.5507200000
1.5701850000	86.5503500000
1.5701860000	86.6612100000
1.5705740000	86.6608400000
1.5705750000	86.7717100000
1.5705770000	86.8825700000
1.5709640000	86.8822000000
1.5713520000	86.8818300000
1.5713540000	86.9927000000
1.5717410000	86.9923300000
1.5721280000	86.9919600000
1.5721300000	87.1028200000
1.5725170000	87.1024500000
1.5725190000	87.2133200000
1.5729060000	87.2129500000
1.5732940000	87.2125800000
1.5732960000	87.3234400000
1.5736830000	87.3230800000
1.5740700000	87.3227100000
1.5744580000	87.3223400000
1.5748450000	87.3219700000
1.5752320000	87.3216000000
1.5756200000	87.3212400000
1.5760070000	87.3208700000
1.5763930000	87.2096400000
1.5767800000	87.2092700000
1.5771680000	87.2089000000
1.5775550000	87.2085300000
1.5775570000	87.3193900000
1.5779440000	87.3190300000
1.5783310000	87.3186600000
1.5783330000	87.4295200000
1.5787210000	87.4291500000
1.5791080000	87.4287900000
1.5794950000	87.4284200000
1.5798830000	87.4280500000
1.5798840000	87.5389100000
1.5802720000	87.5385400000
1.5806590000	87.5381800000
1.5810470000	87.5378100000
1.5814340000	87.5374400000
1.5818200000	87.4262100000
1.5822070000	87.4258400000
1.5825940000	87.4254700000
1.5829820000	87.4251000000
1.5833690000	87.4247400000
1.5837550000	87.3135100000
1.5841420000	87.3131400000
1.5841440000	87.4240000000
1.5845310000	87.4236300000
1.5845330000	87.5345000000
1.5849200000	87.5341300000
1.5853080000	87.5337600000
1.5856950000	87.5333900000
1.5860820000	87.5330200000
1.5864700000	87.5326500000
1.5864720000	87.6435200000
1.5868590000	87.6431500000
1.5872460000	87.6427800000
1.5876320000	87.5315500000
1.5880190000	87.5311800000
1.5884050000	87.4199500000
1.5887920000	87.4195800000
1.5891800000	87.4192100000
1.5895670000	87.4188500000
1.5895690000	87.5297100000
1.5899560000	87.5293400000
1.5899580000	87.6402000000
1.5903450000	87.6398400000
1.5907330000	87.6394700000
1.5907340000	87.7503300000
1.5911220000	87.7499600000
1.5915090000	87.7496000000
1.5918970000	87.7492300000
1.5922840000	87.7488600000
1.5926710000	87.7484900000
1.5930590000	87.7481200000
1.5934460000	87.7477500000
1.5934480000	87.8586200000
1.5938350000	87.8582500000
1.5938370000	87.9691100000
1.5942240000	87.9687400000
1.5946120000	87.9683800000
1.5949990000	87.9680100000
1.5953860000	87.9676400000
1.5957740000	87.9672700000
1.5961610000	87.9669000000
1.5965480000	87.9665400000
1.5969360000	87.9661700000
1.5973230000	87.9658000000
1.5973250000	88.0766600000
1.5977120000	88.0762900000
1.5981000000	88.0759300000
1.5984870000	88.0755600000
1.5984890000	88.1864200000
1.5988760000	88.1860500000
1.5992640000	88.1856900000
1.5992650000	88.2965500000
1.5992670000	88.4074100000
1.5996540000	88.4070400000
1.6000420000	88.4066800000
1.6004290000	88.4063100000
1.6008160000	88.4059400000
1.6012040000	88.4055700000
1.6015910000	88.4052000000
1.6019790000	88.4048400000
1.6023660000	88.4044700000
1.6027530000	88.4041000000
1.6031410000	88.4037300000
1.6031420000	88.5145900000
1.6035300000	88.5142300000
1.6039170000	88.5138600000
1.6043050000	88.5134900000
1.6043060000	88.6243500000
1.6043080000	88.7352200000
1.6046950000	88.7348500000
1.6046970000	88.8457100000
1.6050840000	88.8453400000
1.6054720000	88.8449700000
1.6054740000	88.9558400000
1.6058610000	88.9554700000
1.6062480000	88.9551000000
1.6066360000	88.9547300000
1.6066370000	89.0656000000
1.6070250000	89.0652300000
1.6074100000	88.9540000000
1.6077980000	88.9536300000
1.6081840000	88.8424000000
1.6085710000	88.8420300000
1.6089580000	88.8416600000
1.6093460000	88.8412900000
1.6097330000	88.8409300000
1.6101200000	88.8405600000
1.6105080000	88.8401900000
1.6108950000	88.8398200000
1.6112830000	88.8394500000
1.6116700000	88.8390800000
1.6120570000	88.8387200000
1.6124450000	88.8383500000
1.6128320000	88.8379800000
1.6132190000	88.8376100000
1.6136070000	88.8372400000
1.6139940000	88.8368800000
1.6143820000	88.8365100000
1.6147670000	88.7252800000
1.6151550000	88.7249100000
1.6155420000	88.7245400000
1.6159290000	88.7241700000
1.6163170000	88.7238000000
1.6167020000	88.6125700000
1.6170900000	88.6122000000
1.6170910000	88.7230700000
1.6174790000	88.7227000000
1.6178660000	88.7223300000
1.6182540000	88.7219600000
1.6186410000	88.7216000000
1.6190280000	88.7212300000
1.6194160000	88.7208600000
1.6198030000	88.7204900000
1.6201900000	88.7201200000
1.6205780000	88.7197500000
1.6209630000	88.6085200000
1.6213510000	88.6081600000
1.6217380000	88.6077900000
1.6221240000	88.4965600000
1.6225110000	88.4961900000
1.6228950000	88.2740900000
1.6232830000	88.2737300000
1.6236700000	88.2733600000
1.6240560000	88.1621300000
1.6244430000	88.1617600000
1.6248300000	88.1613900000
1.6252180000	88.1610200000
1.6256050000	88.1606500000
1.6259910000	88.0494200000
1.6263780000	88.0490500000
1.6267660000	88.0486900000
1.6271490000	87.8265900000
1.6275350000	87.7153600000
1.6279230000	87.7149900000
1.6283100000	87.7146200000
1.6286960000	87.6033900000
1.6290810000	87.4921600000
1.6294690000	87.4917900000
1.6298560000	87.4914300000
1.6302430000	87.4910600000
1.6306310000	87.4906900000
1.6310160000	87.3794600000
1.6314040000	87.3790900000
1.6317910000	87.3787200000
1.6321750000	87.1566300000
1.6325620000	87.1562600000
1.6329500000	87.1558900000
1.6333370000	87.1555200000
1.6337230000	87.0442900000
1.6341100000	87.0439200000
1.6344980000	87.0435600000
1.6348850000	87.0431900000
1.6352710000	86.9319600000
1.6356560000	86.8207300000
1.6360440000	86.8203600000
1.6364290000	86.7091300000
1.6368170000	86.7087600000
1.6368180000	86.8196200000
1.6372060000	86.8192500000
1.6375910000	86.7080200000
1.6379790000	86.7076500000
1.6383660000	86.7072900000
1.6387540000	86.7069200000
1.6391410000	86.7065500000
1.6395250000	86.4844600000
1.6399120000	86.4840900000
1.6399140000	86.5949500000
1.6402960000	86.2619900000
1.6406840000	86.2616200000
1.6410690000	86.1503900000
1.6414570000	86.1500300000
1.6418410000	85.9279300000
1.6422280000	85.9275600000
1.6426150000	85.9271900000
1.6430030000	85.9268300000
1.6433880000	85.8156000000
1.6437760000	85.8152300000
1.6441630000	85.8148600000
1.6445510000	85.8144900000
1.6449380000	85.8141200000
1.6453240000	85.7028900000
1.6457090000	85.5916600000
1.6460970000	85.5912900000
1.6460980000	85.7021600000
1.6464810000	85.3692000000
1.6468680000	85.3688300000
1.6472540000	85.2576000000
1.6476410000	85.2572300000
1.6480270000	85.1460000000
1.6484140000	85.1456300000
1.6488000000	85.0344000000
1.6491870000	85.0340300000
1.6495730000	84.9228000000
1.6499600000	84.9224300000
1.6503470000	84.9220600000
1.6507330000	84.8108300000
1.6511200000	84.8104700000
1.6515060000	84.6992300000
1.6518940000	84.6988700000
1.6522810000	84.6985000000
1.6526670000	84.5872700000
1.6530540000	84.5869000000
1.6534410000	84.5865300000
1.6538270000	84.4753000000
1.6542140000	84.4749300000
1.6546020000	84.4745600000
1.6549890000	84.4741900000
1.6553750000	84.3629600000
1.6557600000	84.2517300000
1.6561480000	84.2513600000
1.6565320000	84.0292700000
1.6569190000	84.0289000000
1.6573060000	84.0285300000
1.6576920000	83.9173000000
1.6580780000	83.8060700000
1.6584630000	83.6948400000
1.6588490000	83.5836100000
1.6592350000	83.4723800000
1.6596220000	83.4720100000
1.6600060000	83.2499200000
1.6603930000	83.2495500000
1.6607790000	83.1383200000
1.6611660000	83.1379500000
1.6615540000	83.1375800000
1.6619400000	83.0263500000
1.6623270000	83.0259800000
1.6627130000	82.9147500000
1.6631000000	82.9143800000
1.6634870000	82.9140100000
1.6638730000	82.8027800000
1.6642600000	82.8024100000
1.6646440000	82.5803200000
1.6650320000	82.5799500000
1.6654190000	82.5795800000
1.6658050000	82.4683500000
1.6661900000	82.3571200000
1.6665780000	82.3567500000
1.6669630000	82.2455200000
1.6673490000	82.1342900000
1.6677360000	82.1339200000
1.6681240000	82.1335500000
1.6685110000	82.1331900000
1.6688970000	82.0219500000
1.6692840000	82.0215900000
1.6696700000	81.9103500000
1.6700570000	81.9099900000
1.6704450000	81.9096200000
1.6708320000	81.9092500000
1.6712180000	81.7980200000
1.6716050000	81.7976500000
1.6719910000	81.6864200000
1.6723780000	81.6860500000
1.6727650000	81.6856800000
1.6731530000	81.6853200000
1.6735370000	81.4632200000
1.6739240000	81.4628500000
1.6743120000	81.4624900000
1.6746990000	81.4621200000
1.6750860000	81.4617500000
1.6754740000	81.4613800000
1.6758590000	81.3501500000
1.6762470000	81.3497800000
1.6766320000	81.2385500000
1.6770180000	81.1273200000
1.6774050000	81.1269500000
1.6777930000	81.1265800000
1.6781780000	81.0153500000
1.6785660000	81.0149800000
1.6789530000	81.0146200000
1.6793410000	81.0142500000
1.6797280000	81.0138800000
1.6801150000	81.0135100000
1.6801170000	81.1243700000
1.6805040000	81.1240100000
1.6808920000	81.1236400000
1.6812790000	81.1232700000
1.6816670000	81.1229000000
1.6820520000	81.0116700000
1.6824400000	81.0113000000
1.6828270000	81.0109300000
1.6832140000	81.0105700000
1.6832160000	81.1214300000
1.6836030000	81.1210600000
1.6836050000	81.2319200000
1.6839930000	81.2315600000
1.6839940000	81.3424200000
1.6843820000	81.3420500000
1.6847690000	81.3416800000
1.6851560000	81.3413100000
1.6855440000	81.3409500000
1.6859310000	81.3405800000
1.6863180000	81.3402100000
1.6863200000	81.4510700000
1.6867080000	81.4507100000
1.6870950000	81.4503400000
1.6870970000	81.5612000000
1.6874840000	81.5608300000
1.6878710000	81.5604600000
1.6878730000	81.6713300000
1.6882610000	81.6709600000
1.6886480000	81.6705900000
1.6886500000	81.7814500000
1.6890370000	81.7810900000
1.6890390000	81.8919500000
1.6894260000	81.8915800000
1.6898130000	81.8912100000
1.6902010000	81.8908400000
1.6902030000	82.0017100000
1.6905900000	82.0013400000
1.6909770000	82.0009700000
1.6913650000	82.0006000000
1.6913660000	82.1114700000
1.6917540000	82.1111000000
1.6921410000	82.1107300000
1.6921430000	82.2215900000
1.6925300000	82.2212300000
1.6925320000	82.3320900000
1.6929190000	82.3317200000
1.6929210000	82.4425800000
1.6933080000	82.4422200000
1.6936960000	82.4418500000
1.6940830000	82.4414800000
1.6940850000	82.5523400000
1.6944720000	82.5519700000
1.6944740000	82.6628400000
1.6948610000	82.6624700000
1.6948630000	82.7733300000
1.6952500000	82.7729600000
1.6956380000	82.7726000000
1.6956400000	82.8834600000
1.6956410000	82.9943200000
1.6960290000	82.9939500000
1.6960300000	83.1048200000
1.6964180000	83.1044500000
1.6964190000	83.2153100000
1.6968070000	83.2149400000
1.6971940000	83.2145800000
1.6975820000	83.2142100000
1.6979690000	83.2138400000
1.6983560000	83.2134700000
1.6983580000	83.3243400000
1.6987450000	83.3239700000
1.6987470000	83.4348300000
1.6991350000	83.4344600000
1.6991360000	83.5453300000
1.6991380000	83.6561900000
1.6995250000	83.6558200000
1.6995270000	83.7666800000
1.6999140000	83.7663200000
1.6999160000	83.8771800000
1.7003040000	83.8768100000
1.7003050000	83.9876700000
1.7006930000	83.9873100000
1.7006940000	84.0981700000
1.7010820000	84.0978000000
1.7010830000	84.2086600000
1.7014710000	84.2083000000
1.7014730000	84.3191600000
1.7018600000	84.3187900000
1.7018630000	84.5405200000
1.7022510000	84.5401500000
1.7022520000	84.6510100000
1.7022540000	84.7618700000
1.7026420000	84.7615100000
1.7026430000	84.8723700000
1.7030310000	84.8720000000
1.7034180000	84.8716300000
1.7034200000	84.9825000000
1.7038070000	84.9821300000
1.7041950000	84.9817600000
1.7045820000	84.9813900000
1.7045840000	85.0922600000
1.7049710000	85.0918900000
1.7053580000	85.0915200000
1.7053600000	85.2023800000
1.7057470000	85.2020100000
1.7061350000	85.2016500000
1.7061370000	85.3125100000
1.7065240000	85.3121400000
1.7069110000	85.3117700000
1.7072990000	85.3114000000
1.7073000000	85.4222700000
1.7076880000	85.4219000000
1.7080750000	85.4215300000
1.7080770000	85.5323900000
1.7080790000	85.6432600000
1.7084660000	85.6428900000
1.7084680000	85.7537500000
1.7088550000	85.7533800000
1.7088570000	85.8642500000
1.7092440000	85.8638800000
1.7096320000	85.8635100000
1.7100190000	85.8631400000
1.7100210000	85.9740100000
1.7104080000	85.9736400000
1.7107950000	85.9732700000
1.7111830000	85.9729000000
1.7115700000	85.9725300000
1.7119580000	85.9721700000
1.7119590000	86.0830300000
1.7123470000	86.0826600000
1.7127340000	86.0822900000
1.7127360000	86.1931600000
1.7131230000	86.1927900000
1.7135100000	86.1924200000
1.7138980000	86.1920500000
1.7142850000	86.1916800000
1.7146730000	86.1913200000
1.7150600000	86.1909500000
1.7154470000	86.1905800000
1.7154490000	86.3014400000
1.7158360000	86.3010700000
1.7162240000	86.3007100000
1.7166110000	86.3003400000
1.7169990000	86.2999700000
1.7173860000	86.2996000000
1.7177730000	86.2992300000
1.7181610000	86.2988700000
1.7185480000	86.2985000000
1.7189350000	86.2981300000
1.7193210000	86.1869000000
1.7197080000	86.1865300000
1.7200960000	86.1861600000
1.7204830000	86.1857900000
1.7208690000	86.0745600000
1.7212560000	86.0741900000
1.7216440000	86.0738300000
1.7220290000	85.9625900000
1.7224150000	85.8513600000
1.7228020000	85.8510000000
1.7231900000	85.8506300000
1.7235770000	85.8502600000
1.7239640000	85.8498900000
1.7243520000	85.8495200000
1.7247390000	85.8491500000
1.7251250000	85.7379200000
1.7255120000	85.7375600000
1.7259000000	85.7371900000
1.7262850000	85.6259600000
1.7266710000	85.5147300000
1.7270580000	85.5143600000
1.7274420000	85.2922600000
1.7278300000	85.2918900000
1.7282170000	85.2915300000
1.7286030000	85.1803000000
1.7289880000	85.0690600000
1.7293760000	85.0687000000
1.7293770000	85.1795600000
1.7297600000	84.8466000000
1.7301450000	84.7353700000
1.7305330000	84.7350000000
1.7309200000	84.7346300000
1.7313070000	84.7342700000
1.7316950000	84.7339000000
1.7320820000	84.7335300000
1.7324680000	84.6223000000
1.7328550000	84.6219300000
1.7332430000	84.6215600000
1.7336300000	84.6211900000
1.7340170000	84.6208300000
1.7344030000	84.5095900000
1.7347900000	84.5092300000
1.7351780000	84.5088600000
1.7355630000	84.3976300000
1.7359510000	84.3972600000
1.7363380000	84.3968900000
1.7367260000	84.3965200000
1.7371130000	84.3961500000
1.7375000000	84.3957900000
1.7378880000	84.3954200000
1.7382730000	84.2841900000
1.7386610000	84.2838200000
1.7390480000	84.2834500000
1.7394350000	84.2830800000
1.7398230000	84.2827200000
1.7402100000	84.2823500000
1.7405980000	84.2819800000
1.7409850000	84.2816100000
1.7413690000	84.0595200000
1.7417560000	84.0591500000
1.7417580000	84.1700100000
1.7421450000	84.1696400000
1.7425330000	84.1692800000
1.7425350000	84.2801400000
1.7429220000	84.2797700000
1.7433090000	84.2794000000
1.7433110000	84.3902700000
1.7436980000	84.3899000000
1.7440860000	84.3895300000
1.7444710000	84.2783000000
1.7448590000	84.2779300000
1.7452460000	84.2775600000
1.7456340000	84.2771900000
1.7460210000	84.2768300000
1.7464080000	84.2764600000
1.7467960000	84.2760900000
1.7471830000	84.2757200000
1.7471850000	84.3865800000
1.7475720000	84.3862200000
1.7479590000	84.3858500000
1.7479610000	84.4967100000
1.7483490000	84.4963400000
1.7483500000	84.6072100000
1.7487380000	84.6068400000
1.7491250000	84.6064700000
1.7491270000	84.7173300000
1.7495140000	84.7169600000
1.7495160000	84.8278300000
1.7499030000	84.8274600000
1.7502910000	84.8270900000
1.7506760000	84.7158600000
1.7510640000	84.7154900000
1.7514510000	84.7151200000
1.7514530000	84.8259900000
1.7518400000	84.8256200000
1.7522280000	84.8252500000
1.7526150000	84.8248800000
1.7530020000	84.8245100000
1.7533900000	84.8241500000
1.7537770000	84.8237800000
1.7541640000	84.8234100000
1.7545520000	84.8230400000
1.7549390000	84.8226700000
1.7549410000	84.9335400000
1.7553280000	84.9331700000
1.7553300000	85.0440300000
1.7557170000	85.0436600000
1.7561050000	85.0433000000
1.7564920000	85.0429300000
1.7568790000	85.0425600000
1.7572670000	85.0421900000
1.7576520000	84.9309600000
1.7580400000	84.9305900000
1.7584270000	84.9302200000
1.7584290000	85.0410900000
1.7588160000	85.0407200000
1.7592040000	85.0403500000
1.7595890000	84.9291200000
1.7599750000	84.8178900000
1.7603610000	84.7066600000
1.7607460000	84.5954300000
1.7611340000	84.5950600000
1.7611350000	84.7059200000
1.7615180000	84.3729600000
1.7619030000	84.2617300000
1.7622910000	84.2613600000
1.7626760000	84.1501300000
1.7630640000	84.1497700000
1.7634490000	84.0385300000
1.7638350000	83.9273000000
1.7642210000	83.8160700000
1.7646030000	83.4831100000
1.7649870000	83.2610200000
1.7649890000	83.3718800000
1.7649900000	83.4827500000
1.7653690000	82.9280600000
1.7657550000	82.8168300000
1.7657560000	82.9276900000
1.7657580000	83.0385600000
1.7661370000	82.4838700000
1.7665230000	82.3726400000
1.7669050000	82.0396800000
1.7672890000	81.8175900000
1.7676660000	81.1520400000
1.7680500000	80.9299500000
1.7680530000	81.1516800000
1.7680550000	81.2625400000
1.7684300000	80.4861300000
1.7684340000	80.7078600000
1.7684350000	80.8187200000
1.7688130000	80.1531700000
1.7691980000	80.0419400000
1.7695800000	79.7089800000
1.7699590000	79.1543000000
1.7703410000	78.8213400000
1.7707220000	78.3775200000
1.7710970000	77.6011100000
1.7711040000	78.0445600000
1.7711080000	78.2662900000
1.7711090000	78.3771500000
1.7711110000	78.4880200000
1.7714680000	76.4921100000
1.7714760000	77.0464300000
1.7714800000	77.2681500000
1.7714810000	77.3790200000
1.7714830000	77.4898800000
1.7718410000	75.6048400000
1.7722180000	74.9392900000
1.7725940000	74.1628800000
1.7729710000	73.4973400000
1.7733430000	72.4992000000
1.7737140000	71.5010600000
1.7740850000	70.3920600000
1.7744600000	69.6156500000
1.7744670000	70.0591100000
1.7744700000	70.2808300000
1.7744720000	70.3917000000
1.7744740000	70.5025600000
1.7748220000	67.9523400000
1.7751920000	66.8433400000
1.7755570000	65.4017500000
1.7759240000	64.0710300000
1.7762870000	62.5185700000
1.7763040000	63.6272100000
1.7763130000	64.1815200000
1.7763180000	64.5141100000
1.7763200000	64.6249700000
1.7763210000	64.7358400000
1.7766330000	59.8574900000
1.7770120000	59.3028100000
1.7773770000	57.8612200000
1.7773890000	58.6372600000
1.7773960000	59.0807100000
1.7773990000	59.3024400000
1.7774010000	59.4133000000
1.7777280000	55.5327300000
1.7781100000	55.1997700000
1.7781160000	55.5323600000
1.7781190000	55.7540800000
1.7781210000	55.8649500000
1.7781310000	56.5301300000
1.7784630000	52.9821400000
1.7788300000	51.6514100000
1.7791950000	50.2098200000
1.7795640000	48.9899600000
1.7795740000	49.6551400000
1.7795790000	49.9877300000
1.7795830000	50.2094600000
1.7795840000	50.3203200000
1.7799410000	48.3244100000
1.7799430000	48.4352800000
1.7799440000	48.5461400000
1.7802720000	44.6655600000
1.7806430000	43.6674300000
1.7806570000	44.5543300000
1.7806640000	44.9977900000
1.7806670000	45.2195100000
1.7806690000	45.3303700000
1.7806710000	45.4412400000
1.7809980000	41.5606600000
1.7810120000	42.4475700000
1.7810190000	42.8910200000
1.7810220000	43.1127400000
1.7810240000	43.2236100000
1.7813630000	40.1190700000
1.7817390000	39.3426600000
1.7817470000	39.8969800000
1.7817510000	40.1187000000
1.7817520000	40.2295700000
1.7817540000	40.3404300000
1.7820970000	37.4576200000
1.7824690000	36.4594800000
1.7824790000	37.1246600000
1.7824840000	37.4572500000
1.7824860000	37.5681200000
1.7824880000	37.6789800000
1.7828220000	34.2418500000
1.7831970000	33.4654400000
1.7832040000	33.9089000000
1.7832070000	34.1306200000
1.7832090000	34.2414900000
1.7835780000	33.0216200000
1.7839100000	29.4736400000
1.7842940000	29.2515400000
1.7843040000	29.9167200000
1.7843090000	30.2493100000
1.7843110000	30.3601700000
1.7843130000	30.4710400000
1.7846590000	27.8099500000
1.7846680000	28.3642700000
1.7846710000	28.5860000000
1.7846730000	28.6968600000
1.7846740000	28.8077200000
1.7850260000	26.4792300000
1.7854040000	25.9245400000
1.7854130000	26.4788600000
1.7854170000	26.7005900000
1.7854180000	26.8114500000
1.7854200000	26.9223100000
1.7857870000	25.5915900000
1.7857880000	25.7024500000
1.7861290000	22.7087800000
1.7861400000	23.3739600000
1.7861450000	23.7065500000
1.7861480000	23.9282700000
1.7861500000	24.0391400000
1.7864910000	21.0454600000
1.7868730000	20.7125100000
1.7868800000	21.1559600000
1.7868840000	21.3776800000
1.7868850000	21.4885500000
1.7872400000	19.3817800000
1.7872490000	19.9361000000
1.7872500000	20.0469600000
1.7876380000	20.0465900000
1.7879890000	17.7181000000
1.7879960000	18.1615500000
1.7879990000	18.3832800000
1.7880010000	18.4941400000
1.7880030000	18.6050000000
1.7883640000	16.9416900000
1.7887410000	16.2761400000
1.7887470000	16.6087300000
1.7887500000	16.8304600000
1.7887520000	16.9413200000
1.7891120000	15.1671400000
1.7891200000	15.7214600000
1.7891240000	15.9431800000
1.7891250000	16.0540500000
1.7891270000	16.1649100000
1.7894820000	14.0581400000
1.7898640000	13.7251800000
1.7898670000	13.9469100000
1.7898690000	14.0577700000
1.7902330000	12.5053200000
1.7902390000	12.9487700000
1.7902430000	13.1705000000
1.7902450000	13.2813600000
1.7906100000	11.8397800000
1.7906150000	12.1723600000
1.7906160000	12.2832300000
1.7906180000	12.3940900000
1.7909880000	11.2850900000
1.7909920000	11.5068200000
1.7909940000	11.6176800000
1.7913670000	10.7304100000
1.7913690000	10.8412700000
1.7917460000	10.1757200000
1.7921300000	9.9536300000
1.7925100000	9.5098100000
1.7928910000	9.0659890000
1.7928960000	9.3985780000
1.7928990000	9.6203050000
1.7929010000	9.7311680000
1.7932610000	7.9569900000
1.7936470000	7.8457590000
1.7936480000	7.9566220000
1.7940260000	7.2910750000
1.7940270000	7.4019380000
1.7940290000	7.5128010000
1.7944060000	6.8472540000
1.7947920000	6.7360230000
1.7947930000	6.8468860000
1.7951720000	6.2922030000
1.7951740000	6.4030660000
1.7951760000	6.5139290000
1.7955530000	5.8483820000
1.7959370000	5.6262880000
1.7959400000	5.8480140000
1.7959420000	5.9588770000
1.7963150000	5.0716040000
1.7963170000	5.1824670000
1.7963190000	5.2933300000
1.7966990000	4.8495100000
1.7967010000	4.9603730000
1.7970830000	4.6274150000
1.7974660000	4.2944580000
1.7978510000	4.1832270000
1.7982370000	4.0719950000
1.7986210000	3.8499010000
1.7990060000	3.7386700000
1.7993900000	3.5165750000
1.7997760000	3.4053440000
1.7997780000	3.5162070000
1.7997800000	3.6270700000
1.8001580000	3.0723870000
1.8005420000	2.8502920000
1.8009260000	2.6281980000
1.8013120000	2.5169670000
1.8013140000	2.6278300000
1.8016960000	2.2948730000
1.8020810000	2.1836410000
1.8024670000	2.0724100000
1.8028530000	1.9611790000
1.8032380000	1.8499480000
1.8036260000	1.8495800000
1.8040100000	1.6274850000
1.8043970000	1.6271170000
1.8047840000	1.6267490000
1.8051680000	1.4046550000
1.8055560000	1.4042870000
1.8059410000	1.2930550000
1.8063290000	1.2926870000
1.8067140000	1.1814560000
1.8071000000	1.0702250000
1.8074880000	1.0698570000
1.8078750000	1.0694890000
1.8082610000	0.9582573000
1.8086480000	0.9578892000
1.8090340000	0.8466580000
1.8094210000	0.8462899000
1.8098070000	0.7350586000
1.8101940000	0.7346905000
1.8105810000	0.7343224000
1.8109670000	0.6230912000
1.8113540000	0.6227231000
1.8117400000	0.5114918000
1.8121270000	0.5111237000
1.8125130000	0.3998925000
1.8129000000	0.3995244000
1.8132880000	0.3991563000
1.8136750000	0.3987882000
1.8140610000	0.2875570000
1.8144480000	0.2871888000
1.8148360000	0.2868207000
1.8152230000	0.2864526000
1.8156100000	0.2860845000
1.8159980000	0.2857164000
1.8163850000	0.2853483000
1.8167730000	0.2849802000
1.8171600000	0.2846121000
1.8175460000	0.1733808000
1.8179330000	0.1730127000
1.8183200000	0.1726446000
1.8187060000	0.0614133800
1.8190930000	0.0610452700
1.8194810000	0.0606771500
1.8198680000	0.0603090400
1.8202550000	0.0599409300
1.8206430000	0.0595728200
1.8210300000	0.0592047100
1.8214180000	0.0588365900
1.8218050000	0.0584684800
1.8221910000	-0.0527627400
1.8225780000	-0.0531308600
1.8229650000	-0.0534989700
1.8233530000	-0.0538670800
1.8237400000	-0.0542351900
1.8241280000	-0.0546033000
1.8245150000	-0.0549714200
1.8249020000	-0.0553395300
1.8252900000	-0.0557076400
1.8256770000	-0.0560757500
1.8260640000	-0.0564438600
1.8264520000	-0.0568119800
1.8268390000	-0.0571800900
1.8272270000	-0.0575482000
1.8276140000	-0.0579163100
1.8280010000	-0.0582844300
1.8283890000	-0.0586525400
1.8287760000	-0.0590206500
1.8291630000	-0.0593887600
1.8295510000	-0.0597568700
1.8299380000	-0.0601249900
1.8303260000	-0.0604931000
1.8307130000	-0.0608612100
1.8311000000	-0.0612293200
1.8314880000	-0.0615974300
1.8318750000	-0.0619655500
1.8322620000	-0.0623336600
1.8326500000	-0.0627017700
1.8330370000	-0.0630698800
1.8334250000	-0.0634380000
1.8338120000	-0.0638061100
1.8341990000	-0.0641742200
1.8345870000	-0.0645423300
1.8349740000	-0.0649104400
1.8353610000	-0.0652785600
1.8357490000	-0.0656466700
1.8361360000	-0.0660147800
1.8365240000	-0.0663828900
1.8369110000	-0.0667510100
1.8372980000	-0.0671191200
1.8376860000	-0.0674872300
1.8380730000	-0.0678553400
1.8384600000	-0.0682234500
1.8388480000	-0.0685915700
1.8392350000	-0.0689596800
1.8396230000	-0.0693277900
1.8400100000	-0.0696959000
1.8403970000	-0.0700640100
1.8407850000	-0.0704321300
1.8411720000	-0.0708002400
1.8415590000	-0.0711683500
1.8419470000	-0.0715364600
1.8423340000	-0.0719045800
1.8427220000	-0.0722726900
1.8431090000	-0.0726408000
1.8434960000	-0.0730089100
1.8438840000	-0.0733770200
1.8442710000	-0.0737451400
1.8446590000	-0.0741132500
1.8450460000	-0.0744813600
1.8454330000	-0.0748494700
1.8458210000	-0.0752175800
1.8462080000	-0.0755857000
1.8465950000	-0.0759538100
1.8469830000	-0.0763219200
1.8473700000	-0.0766900300
1.8477580000	-0.0770581500
1.8481450000	-0.0774262600
1.8485320000	-0.0777943700
1.8489200000	-0.0781624800
1.8493070000	-0.0785305900
1.8496940000	-0.0788987100
1.8500820000	-0.0792668200
1.8504690000	-0.0796349300
1.8508570000	-0.0800030400
1.8512440000	-0.0803711600
1.8516310000	-0.0807392700
1.8520190000	-0.0811073800
1.8524060000	-0.0814754900
1.8527930000	-0.0818436000
1.8531810000	-0.0822117200
1.8535680000	-0.0825798300
1.8539560000	-0.0829479400
1.8543430000	-0.0833160500
1.8547300000	-0.0836841600
1.8551180000	-0.0840522800
1.8555050000	-0.0844203900
1.8558920000	-0.0847885000
1.8562800000	-0.0851566100
1.8566670000	-0.0855247300
1.8570550000	-0.0858928400
1.8574420000	-0.0862609500
1.8578290000	-0.0866290600
1.8582170000	-0.0869971700
1.8586040000	-0.0873652900
1.8589910000	-0.0877334000
1.8593790000	-0.0881015100
1.8597660000	-0.0884696200
1.8601540000	-0.0888377300
1.8605410000	-0.0892058500
1.8609280000	-0.0895739600
1.8613160000	-0.0899420700
1.8617030000	-0.0903101800
1.8620900000	-0.0906783000
1.8624780000	-0.0910464100
1.8628650000	-0.0914145200
1.8632530000	-0.0917826300
1.8636400000	-0.0921507400
1.8640270000	-0.0925188600
1.8644150000	-0.0928869700
1.8648020000	-0.0932550800
1.8651890000	-0.0936231900
1.8655770000	-0.0939913100
1.8659640000	-0.0943594200
1.8663520000	-0.0947275300
1.8667390000	-0.0950956400
1.8671260000	-0.0954637500
1.8675140000	-0.0958318700
1.8679010000	-0.0961999800
1.8682880000	-0.0965680900
1.8686760000	-0.0969362000
1.8690630000	-0.0973043100
1.8694510000	-0.0976724300
1.8698380000	-0.0980405400
1.8702250000	-0.0984086500
1.8706130000	-0.0987767600
1.8710000000	-0.0991448800
1.8713880000	-0.0995129900
1.8717750000	-0.0998811000
1.8721620000	-0.1002492000
1.8725500000	-0.1006173000
1.8729370000	-0.1009854000
1.8733240000	-0.1013535000
1.8737120000	-0.1017217000
1.8740990000	-0.1020898000
1.8744870000	-0.1024579000
1.8748740000	-0.1028260000
1.8752610000	-0.1031941000
1.8756490000	-0.1035622000
1.8760360000	-0.1039303000
1.8764230000	-0.1042984000
1.8768110000	-0.1046666000
1.8768120000	0.0061965550
1.8772000000	0.0058284430
1.8775870000	0.0054603300
1.8779730000	-0.1057709000
1.8783600000	-0.1061390000
1.8787480000	-0.1065071000
1.8791350000	-0.1068752000
1.8795220000	-0.1072433000
1.8799100000	-0.1076115000
1.8802970000	-0.1079796000
1.8802990000	0.0028835450
1.8806860000	0.0025154330
1.8810720000	-0.1087158000
1.8814590000	-0.1090839000
1.8818470000	-0.1094520000
1.8822340000	-0.1098201000
1.8826210000	-0.1101882000
1.8830090000	-0.1105564000
1.8833960000	-0.1109245000
1.8837840000	-0.1112926000
1.8841710000	-0.1116607000
1.8845580000	-0.1120288000
1.8849460000	-0.1123969000
1.8853330000	-0.1127650000
1.8857200000	-0.1131331000
1.8861080000	-0.1135012000
1.8864950000	-0.1138694000
1.8868830000	-0.1142375000
1.8872700000	-0.1146056000
1.8876570000	-0.1149737000
1.8880450000	-0.1153418000
1.8884320000	-0.1157099000
1.8888190000	-0.1160780000
1.8892070000	-0.1164461000
1.8895940000	-0.1168143000
1.8899820000	-0.1171824000
1.8903690000	-0.1175505000
1.8907560000	-0.1179186000
1.8911440000	-0.1182867000
1.8915310000	-0.1186548000
1.8919180000	-0.1190229000
1.8923060000	-0.1193910000
1.8926930000	-0.1197592000
1.8930810000	-0.1201273000
1.8934680000	-0.1204954000
1.8938550000	-0.1208635000
1.8942430000	-0.1212316000
1.8942440000	-0.0103684900
1.8946320000	-0.0107366000
1.8950190000	-0.0111047200
1.8954050000	-0.1223359000
1.8957920000	-0.1227041000
1.8957940000	-0.0118409400
1.8961810000	-0.0122090500
1.8965690000	-0.0125771700
1.8969560000	-0.0129452800
1.8973430000	-0.0133133900
1.8977310000	-0.0136815000
1.8981180000	-0.0140496100
1.8985060000	-0.0144177300
1.8988930000	-0.0147858400
1.8992800000	-0.0151539500
1.8996660000	-0.1263852000
1.9000530000	-0.1267533000
1.9004410000	-0.1271214000
1.9004420000	-0.0162582900
1.9008300000	-0.0166264000
1.9012170000	-0.0169945100
1.9016050000	-0.0173626200
1.9019920000	-0.0177307400
1.9023790000	-0.0180988500
1.9027670000	-0.0184669600
1.9031540000	-0.0188350700
1.9035410000	-0.0192031800
1.9039270000	-0.1304344000
1.9043150000	-0.1308025000
1.9047020000	-0.1311706000
1.9050890000	-0.1315387000
1.9054770000	-0.1319069000
1.9054780000	-0.0210437500
1.9058660000	-0.0214118600
1.9062530000	-0.0217799700
1.9066400000	-0.0221480800
1.9070280000	-0.0225161900
1.9074150000	-0.0228843100
1.9078030000	-0.0232524200
1.9081900000	-0.0236205300
1.9085770000	-0.0239886400
1.9089650000	-0.0243567500
1.9093520000	-0.0247248700
1.9097400000	-0.0250929800
1.9101270000	-0.0254610900
1.9105140000	-0.0258292000
1.9109020000	-0.0261973200
1.9112890000	-0.0265654300
1.9116760000	-0.0269335400
1.9120640000	-0.0273016500
1.9124510000	-0.0276697600
1.9128390000	-0.0280378800
1.9132260000	-0.0284059900
1.9136130000	-0.0287741000
1.9140010000	-0.0291422100
1.9140010000	-0.0291422100
