#Wavelength	Transmission
1.06247400	-0.0034960740
1.06275100	-0.0035737650
1.06302800	-0.0036514550
1.06330600	-0.0037291460
1.06358300	-0.0038068360
1.06386000	-0.0038845270
1.06413700	-0.0039622180
1.06441400	-0.0040399080
1.06469200	-0.0041175990
1.06496900	-0.0041952890
1.06524600	-0.0042729800
1.06552300	-0.0043506700
1.06580000	-0.0044283610
1.06607800	-0.0045060510
1.06635500	-0.0045837420
1.06663200	-0.0046614320
1.06690900	-0.0047391230
1.06718600	-0.0048168130
1.06746400	-0.0048945040
1.06774100	-0.0049721950
1.06801800	-0.0050498850
1.06829500	-0.0051275760
1.06857200	-0.0052052660
1.06885000	-0.0052829570
1.06912700	-0.0053606470
1.06940400	-0.0054383380
1.06968100	-0.0055160280
1.06995800	-0.0055937190
1.07023600	-0.0056714090
1.07051300	-0.0057491000
1.07079000	-0.0058267900
1.07106700	-0.0059044810
1.07134400	-0.0059821720
1.07162200	-0.0060598620
1.07189900	-0.0061375530
1.07217600	-0.0062152430
1.07245300	-0.0062929340
1.07273000	-0.0063706240
1.07300800	-0.0064483150
1.07328500	-0.0065260050
1.07356200	-0.0066036960
1.07383900	-0.0066813860
1.07411600	-0.0067590770
1.07411700	0.1053484000
1.07439400	0.1052707000
1.07467100	0.1051930000
1.07494900	0.1051153000
1.07522500	-0.0070698390
1.07550200	-0.0071475300
1.07578000	-0.0072252200
1.07605700	-0.0073029110
1.07633400	-0.0073806010
1.07661100	-0.0074582920
1.07688800	-0.0075359820
1.07716600	-0.0076136730
1.07744300	-0.0076913630
1.07772000	-0.0077690540
1.07799700	-0.0078467450
1.07827400	-0.0079244350
1.07855200	-0.0080021260
1.07882900	-0.0080798160
1.07910600	-0.0081575070
1.07938300	-0.0082351970
1.07966000	-0.0083128880
1.07993800	-0.0083905780
1.08021500	-0.0084682690
1.08049200	-0.0085459590
1.08076900	-0.0086236500
1.08104600	-0.0087013400
1.08132400	-0.0087790310
1.08160100	-0.0088567220
1.08187800	-0.0089344120
1.08215500	-0.0090121030
1.08243200	-0.0090897930
1.08271000	-0.0091674840
1.08298700	-0.0092451740
1.08326400	-0.0093228650
1.08354100	-0.0094005550
1.08381800	-0.0094782460
1.08409600	-0.0095559360
1.08437300	-0.0096336270
1.08465000	-0.0097113170
1.08492700	-0.0097890080
1.08520400	-0.0098666990
1.08548200	-0.0099443890
1.08575900	-0.0100220800
1.08603600	-0.0100997700
1.08631300	-0.0101774600
1.08659000	-0.0102551500
1.08686800	-0.0103328400
1.08714500	-0.0104105300
1.08742200	-0.0104882200
1.08769900	-0.0105659100
1.08797600	-0.0106436000
1.08825400	-0.0107212900
1.08853100	-0.0107989900
1.08880800	-0.0108766800
1.08908500	-0.0109543700
1.08936200	-0.0110320600
1.08964000	-0.0111097500
1.08991700	-0.0111874400
1.09019400	-0.0112651300
1.09047100	-0.0113428200
1.09074800	-0.0114205100
1.09102600	-0.0114982000
1.09130300	-0.0115758900
1.09157900	-0.1237610000
1.09185700	-0.1238387000
1.09185700	-0.0117312700
1.09213400	-0.0118089600
1.09241200	-0.0118866500
1.09268900	-0.0119643400
1.09296600	-0.0120420300
1.09324300	-0.0121197200
1.09352000	-0.0121974100
1.09379800	-0.0122751100
1.09407500	-0.0123528000
1.09435200	-0.0124304900
1.09462900	-0.0125081800
1.09490600	-0.0125858700
1.09518400	-0.0126635600
1.09546100	-0.0127412500
1.09573800	-0.0128189400
1.09601500	-0.0128966300
1.09629200	-0.0129743200
1.09657000	-0.0130520100
1.09684700	-0.0131297000
1.09712400	-0.0132073900
1.09740100	-0.0132850800
1.09767800	-0.0133627700
1.09767900	0.0987446800
1.09795600	0.0986669900
1.09823300	-0.0135181500
1.09851000	-0.0135958400
1.09878700	-0.0136735400
1.09906400	-0.0137512300
1.09934200	-0.0138289200
1.09961900	-0.0139066100
1.09989600	-0.0139843000
1.10017300	-0.0140619900
1.10045000	-0.0141396800
1.10072800	-0.0142173700
1.10072800	0.0978900800
1.10100500	0.0978123900
1.10128300	0.0977347000
1.10156000	0.0976570100
1.10183700	0.0975793200
1.10211400	0.0975016300
1.10239100	0.0974239400
1.10266900	0.0973462500
1.10294600	0.0972685600
1.10322300	0.0971908700
1.10350000	-0.0149942700
1.10377700	-0.0150719600
1.10405400	-0.0151496600
1.10433100	-0.0152273500
1.10460800	-0.0153050400
1.10488600	-0.0153827300
1.10516300	-0.0154604200
1.10544000	-0.0155381100
1.10571700	-0.0156158000
1.10599400	-0.0156934900
1.10627200	-0.0157711800
1.10654900	-0.0158488700
1.10682600	-0.0159265600
1.10710300	-0.0160042500
1.10738000	-0.0160819400
1.10765800	-0.0161596300
1.10793500	-0.0162373200
1.10821200	-0.0163150100
1.10848900	-0.0163927000
1.10876600	-0.0164703900
1.10904400	-0.0165480900
1.10932100	-0.0166257800
1.10959800	-0.0167034700
1.10987500	-0.0167811600
1.11015200	-0.0168588500
1.11043000	-0.0169365400
1.11070700	-0.0170142300
1.11098400	-0.0170919200
1.11126100	-0.0171696100
1.11153800	-0.0172473000
1.11181600	-0.0173249900
1.11209300	-0.0174026800
1.11237000	-0.0174803700
1.11264700	-0.0175580600
1.11292400	-0.0176357500
1.11320200	-0.0177134400
1.11347900	-0.0177911300
1.11375600	-0.0178688200
1.11403300	-0.0179465100
1.11431000	-0.0180242100
1.11458800	-0.0181019000
1.11486500	-0.0181795900
1.11514200	-0.0182572800
1.11541900	-0.0183349700
1.11569600	-0.0184126600
1.11597400	-0.0184903500
1.11625100	-0.0185680400
1.11652800	-0.0186457300
1.11680500	-0.0187234200
1.11708200	-0.0188011100
1.11736000	-0.0188788000
1.11763700	-0.0189564900
1.11791400	-0.0190341800
1.11819100	-0.0191118700
1.11846800	-0.0191895600
1.11874600	-0.0192672500
1.11902300	-0.0193449400
1.11930000	-0.0194226300
1.11957700	-0.0195003300
1.11985400	-0.0195780200
1.12013200	-0.0196557100
1.12040900	-0.0197334000
1.12068600	-0.0198110900
1.12096300	-0.0198887800
1.12124000	-0.0199664700
1.12151800	-0.0200441600
1.12179500	-0.0201218500
1.12207200	-0.0201995400
1.12234900	-0.0202772300
1.12262600	-0.0203549200
1.12290400	-0.0204326100
1.12318100	-0.0205103000
1.12345800	-0.0205879900
1.12373500	-0.0206656800
1.12401200	-0.0207433700
1.12429000	-0.0208210600
1.12456700	-0.0208987600
1.12484400	-0.0209764500
1.12512100	-0.0210541400
1.12539800	-0.0211318300
1.12567600	-0.0212095200
1.12595300	-0.0212872100
1.12623000	-0.0213649000
1.12650700	-0.0214425900
1.12678400	-0.0215202800
1.12706200	-0.0215979700
1.12733900	-0.0216756600
1.12733900	0.0904317900
1.12761700	0.0903541000
1.12789400	0.0902764100
1.12817100	0.0901987200
1.12844800	0.0901210300
1.12872500	-0.0220641100
1.12900200	-0.0221418000
1.12927900	-0.0222194900
1.12955600	-0.0222971800
1.12983400	-0.0223748800
1.13011100	-0.0224525700
1.13038800	-0.0225302600
1.13066500	-0.0226079500
1.13094200	-0.0226856400
1.13122000	-0.0227633300
1.13149700	-0.0228410200
1.13177400	-0.0229187100
1.13205100	-0.0229964000
1.13232800	-0.0230740900
1.13260600	-0.0231517800
1.13288300	-0.0232294700
1.13316000	-0.0233071600
1.13343700	-0.0233848500
1.13371400	-0.0234625400
1.13399200	-0.0235402300
1.13426900	-0.0236179200
1.13454600	-0.0236956100
1.13482300	-0.0237733100
1.13510000	-0.0238510000
1.13537800	-0.0239286900
1.13565500	-0.0240063800
1.13593200	-0.0240840700
1.13620900	-0.0241617600
1.13648600	-0.0242394500
1.13676400	-0.0243171400
1.13704100	-0.0243948300
1.13731800	-0.0244725200
1.13759500	-0.0245502100
1.13787200	-0.0246279000
1.13815000	-0.0247055900
1.13842700	-0.0247832800
1.13870400	-0.0248609700
1.13898100	-0.0249386600
1.13925800	-0.0250163500
1.13953600	-0.0250940400
1.13981300	-0.0251717300
1.14009000	-0.0252494300
1.14036700	-0.0253271200
1.14064400	-0.0254048100
1.14092200	-0.0254825000
1.14119900	-0.0255601900
1.14147600	-0.0256378800
1.14175300	-0.0257155700
1.14175400	0.0863918800
1.14203100	0.0863141900
1.14230800	0.0862365000
1.14258500	0.0861588100
1.14286300	0.0860811200
1.14314000	0.0860034300
1.14341700	0.0859257400
1.14369400	0.0858480500
1.14397100	0.0857703600
1.14397200	0.1978778000
1.14424900	0.1978001000
1.14452600	0.1977224000
1.14480400	0.1976447000
1.14508100	0.1975670000
1.14535800	0.1974894000
1.14563500	0.1974117000
1.14563600	0.3095191000
1.14591300	0.3094414000
1.14619000	0.3093637000
1.14619100	0.4214712000
1.14646800	0.4213935000
1.14646900	0.5335009000
1.14674600	0.5334232000
1.14702300	0.5333456000
1.14730000	0.5332679000
1.14730100	0.6453753000
1.14757800	0.6452976000
1.14757900	0.7574051000
1.14785600	0.7573274000
1.14813300	0.7572497000
1.14979800	1.0931060000
1.15007500	1.0930280000
1.15007600	1.2051360000
1.15035300	1.2050580000
1.15035400	1.3171650000
1.15063100	1.3170880000
1.15063200	1.4291950000
1.15063200	1.5413030000
1.15090900	1.5412250000
1.15091000	1.6533320000
1.15091100	1.7654400000
1.15118800	1.7653620000
1.15118900	1.8774700000
1.15146600	1.8773920000
1.15146600	1.9894990000
1.15174400	1.9894220000
1.15174400	2.1015290000
1.15202100	2.1014510000
1.15229900	2.1013740000
1.15229900	2.2134810000
1.15368900	2.8857370000
1.15424600	3.3340120000
1.15703200	5.9117060000
1.15703300	6.0238140000
1.15731100	6.2479510000
1.15731200	6.3600580000
1.15758900	6.3599810000
1.15759000	6.4720880000
1.15759000	6.5841960000
1.15786900	6.9204400000
1.15787000	7.0325480000
1.15787200	7.3688700000
1.15787200	7.4809770000
1.15815000	7.4809000000
1.15815100	7.7051150000
1.15815100	7.8172220000
1.15871000	8.4897110000
1.15871600	9.6107860000
1.15899100	9.2743860000
1.15899300	9.6107080000
1.15927000	9.6106310000
1.15927100	9.7227380000
1.15954800	9.7226600000
1.15954900	9.8347680000
1.15982600	9.8346900000
1.15982600	9.9467980000
1.16039500	12.5251100000
1.16039600	12.6372200000
1.16039800	13.0856500000
1.16152300	15.8880300000
1.16152300	16.0001300000
1.16152400	16.1122400000
1.16180300	16.4484900000
1.16209100	18.3542300000
1.16209200	18.5784500000
1.16209300	18.6905600000
1.16209900	19.8116300000
1.16237500	19.6994500000
1.16237700	19.9236600000
1.16265400	19.9235800000
1.16265600	20.2599100000
1.16265700	20.5962300000
1.16265800	20.7083400000
1.16265900	20.8204400000
1.16293100	19.9235100000
1.16293200	20.0356100000
1.16293200	20.1477200000
1.16294200	21.8293300000
1.16294200	21.9414400000
1.16322600	23.0624400000
1.16322700	23.3987600000
1.16322900	23.6229700000
1.16322900	23.7350800000
1.16351800	25.8650500000
1.16352000	26.2013700000
1.16352100	26.4255800000
1.16352200	26.5376900000
1.16380500	27.6586900000
1.16380700	27.8829000000
1.16380700	27.9950100000
1.16380800	28.1071200000
1.16408500	28.1070400000
1.16409200	29.3402200000
1.16409600	30.0128700000
1.16409700	30.2370800000
1.16437400	30.2370000000
1.16465100	30.2369300000
1.16465200	30.3490300000
1.16467100	33.7122600000
1.16467300	34.1606900000
1.16467400	34.3849000000
1.16467500	34.4970100000
1.16467600	34.6091200000
1.16495000	34.1606100000
1.16495800	35.6180000000
1.16496100	36.0664300000
1.16496100	36.1785400000
1.16523900	36.1784600000
1.16524400	37.1874300000
1.16524700	37.7479700000
1.16524900	37.9721800000
1.16524900	38.0842900000
1.16525000	38.1964000000
1.16526200	40.4385500000
1.16553600	39.7658300000
1.16554100	40.6626800000
1.16554300	41.1111100000
1.16554400	41.3353300000
1.16554500	41.4474400000
1.16554900	42.2321900000
1.16582700	42.2321100000
1.16583300	43.4652900000
1.16583700	44.0258300000
1.16583800	44.3621500000
1.16583900	44.4742600000
1.16584000	44.5863700000
1.16612700	46.3800100000
1.16613100	47.0526500000
1.16613100	47.1647600000
1.16613200	47.2768700000
1.16640900	47.2767900000
1.16641500	48.3978700000
1.16641800	48.9584000000
1.16642000	49.2947300000
1.16669700	49.2946500000
1.16670400	50.4157200000
1.16670600	50.8641500000
1.16698300	50.8640700000
1.16699800	53.5546500000
1.16700400	54.5636200000
1.16700400	54.6757300000
1.16728200	54.6756500000
1.16729000	56.1330500000
1.16729300	56.6935800000
1.16729300	56.8056900000
1.16757100	56.8056100000
1.16757700	58.0388000000
1.16758100	58.7114400000
1.16758200	58.8235500000
1.16758200	58.9356600000
1.16786000	58.9355800000
1.16787300	61.2898300000
1.16787900	62.4109100000
1.16788000	62.5230200000
1.16815700	62.5229400000
1.16816300	63.6440100000
1.16816500	63.9803300000
1.16816500	64.0924400000
1.16844300	64.0923600000
1.16844900	65.3255500000
1.16845300	65.8860800000
1.16845300	65.9981900000
1.16845400	66.1103000000
1.16873100	66.1102200000
1.16873800	67.3434000000
1.16874000	67.7918300000
1.16874100	67.9039400000
1.16901800	67.9038600000
1.16902600	69.3612600000
1.16902900	69.8096900000
1.16930600	69.8096100000
1.16931000	70.4822600000
1.16931000	70.5943600000
1.16931100	70.7064700000
1.16958800	70.7063900000
1.16959900	72.6122200000
1.16960400	73.5090800000
1.16988100	73.5090000000
1.16988600	74.4058600000
1.16988800	74.8542900000
1.17016600	74.8542100000
1.17017100	75.8631800000
1.17017200	76.0874000000
1.17045000	76.0873200000
1.17045400	76.8720700000
1.17045600	77.2083900000
1.17045600	77.3205000000
1.17073400	77.3204200000
1.17073900	78.2172800000
1.17074000	78.5536000000
1.17074100	78.6657100000
1.17101800	78.6656300000
1.17102300	79.5624900000
1.17102400	79.7867100000
1.17130200	79.7866300000
1.17130700	80.6834900000
1.17130900	81.1319200000
1.17131000	81.2440300000
1.17131000	81.3561300000
1.17158800	81.3560600000
1.17158900	81.6923800000
1.17159100	81.9165900000
1.17186800	81.9165200000
1.17187200	82.5891600000
1.17187200	82.7012700000
1.17214900	82.7011900000
1.17215300	83.2617300000
1.17215300	83.3738400000
1.17215400	83.4859400000
1.17243100	83.4858700000
1.17243200	83.7100800000
1.17243300	83.8221900000
1.17271000	83.8221100000
1.17271100	83.9342200000
1.17271100	84.0463300000
1.17298800	84.0462500000
1.17299000	84.2704600000
1.17299000	84.3825700000
1.17326800	84.3824900000
1.17326800	84.4946000000
1.17354500	84.4945200000
1.17354600	84.6066300000
1.17382300	84.6065500000
1.17410000	84.6064700000
1.17437800	84.6064000000
1.17465400	84.4942100000
1.17493100	84.3820300000
1.17520700	84.2698400000
1.17520800	84.3819500000
1.17548300	84.0455500000
1.17575900	83.8212600000
1.17603600	83.7090700000
1.17603600	83.8211800000
1.17631100	83.3726700000
1.17631200	83.4847800000
1.17658800	83.2604900000
1.17686400	83.0361900000
1.17714000	82.9240100000
1.17741600	82.6997200000
1.17769300	82.6996400000
1.17796900	82.3632400000
1.17824600	82.3631600000
1.17852300	82.2509700000
1.17879900	82.1387900000
1.17907600	82.0266000000
1.17935200	81.8023100000
1.17962900	81.8022300000
1.17990500	81.6900500000
1.18018300	81.6899700000
1.18046000	81.6898900000
1.18073700	81.6898200000
1.18101400	81.6897400000
1.18101500	81.8018500000
1.18129200	81.8017700000
1.18129300	81.9138800000
1.18157000	81.9138000000
1.18157000	82.0259100000
1.18184800	82.0258300000
1.18184800	82.1379300000
1.18212600	82.1378600000
1.18212600	82.2499600000
1.18240300	82.2498900000
1.18268100	82.2498100000
1.18268100	82.3619200000
1.18295800	82.3618400000
1.18295900	82.4739500000
1.18323600	82.4738700000
1.18323700	82.5859800000
1.18323700	82.6980800000
1.18351500	82.6980100000
1.18351500	82.8101100000
1.18351600	82.9222200000
1.18379300	82.9221400000
1.18379400	83.0342500000
1.18407100	83.0341700000
1.18407100	83.1462800000
1.18434900	83.1462000000
1.18434900	83.2583100000
1.18462700	83.2582300000
1.18462700	83.3703400000
1.18462800	83.4824500000
1.18490500	83.4823700000
1.18490600	83.5944800000
1.18518300	83.5944000000
1.18518300	83.7065100000
1.18518400	83.8186100000
1.18546100	83.8185400000
1.18546200	83.9306400000
1.18546200	84.0427500000
1.18574000	84.0426700000
1.18574000	84.1547800000
1.18574100	84.2668900000
1.18601800	84.2668100000
1.18601900	84.3789200000
1.18629600	84.3788400000
1.18629700	84.4909500000
1.18657400	84.4908700000
1.18657500	84.7150900000
1.18685200	84.7150100000
1.18685300	84.8271200000
1.18685300	84.9392200000
1.18713100	84.9391500000
1.18713200	85.1633600000
1.18713300	85.2754700000
1.18741000	85.2753900000
1.18741000	85.3875000000
1.18768800	85.3874200000
1.18768900	85.6116300000
1.18796600	85.6115600000
1.18796700	85.7236600000
1.18824400	85.7235900000
1.18824400	85.8356900000
1.18824500	85.9478000000
1.18852200	85.9477200000
1.18879900	85.9476500000
1.18880000	86.0597500000
1.18907700	86.0596800000
1.18907800	86.1717800000
1.18935500	86.1717100000
1.18935600	86.2838100000
1.18963300	86.2837400000
1.18963400	86.3958400000
1.18991100	86.3957600000
1.19018800	86.3956900000
1.19046500	86.3956100000
1.19074200	86.3955300000
1.19102000	86.3954500000
1.19102000	86.5075600000
1.19129700	86.5074800000
1.19157500	86.5074100000
1.19185200	86.5073300000
1.19185200	86.6194400000
1.19213000	86.6193600000
1.19240700	86.6192800000
1.19240700	86.7313900000
1.19268500	86.7313100000
1.19296200	86.7312300000
1.19296200	86.8433400000
1.19324000	86.8432600000
1.19351700	86.8431800000
1.19379400	86.8431100000
1.19407100	86.8430300000
1.19434800	86.8429500000
1.19462600	86.8428700000
1.19490300	86.8428000000
1.19517900	86.7306100000
1.19545700	86.7305300000
1.19573400	86.7304600000
1.19601100	86.7303800000
1.19628800	86.6181900000
1.19656400	86.5060100000
1.19684100	86.5059300000
1.19711900	86.5058500000
1.19739500	86.3936700000
1.19767200	86.3935900000
1.19794900	86.2814000000
1.19822600	86.2813300000
1.19850300	86.2812500000
1.19878000	86.1690600000
1.19905700	86.1689900000
1.19933400	86.1689100000
1.19961100	86.1688300000
1.19988800	86.0566500000
1.20016500	86.0565700000
1.20044200	86.0564900000
1.20072000	86.0564100000
1.20099700	86.0563300000
1.20127400	86.0562600000
1.20155100	86.0561800000
1.20182800	86.0561000000
1.20182900	86.1682100000
1.20210600	86.1681300000
1.20238300	86.1680500000
1.20266100	86.1679800000
1.20266100	86.2800800000
1.20293800	86.2800100000
1.20293900	86.3921100000
1.20321600	86.3920400000
1.20349400	86.3919600000
1.20349400	86.5040700000
1.20377100	86.5039900000
1.20404900	86.5039100000
1.20432600	86.5038300000
1.20460300	86.5037500000
1.20488000	86.5036800000
1.20515700	86.5036000000
1.20543500	86.5035200000
1.20571200	86.5034400000
1.20598900	86.5033700000
1.20626600	86.5032900000
1.20654300	86.5032100000
1.20682000	86.3910300000
1.20709700	86.3909500000
1.20737400	86.3908700000
1.20765200	86.3907900000
1.20792900	86.3907200000
1.20792900	86.5028200000
1.20820700	86.5027400000
1.20848400	86.5026700000
1.20876100	86.5025900000
1.20903800	86.5025100000
1.20931500	86.5024300000
1.20959300	86.5023600000
1.20987000	86.5022800000
1.21014700	86.5022000000
1.21042400	86.5021200000
1.21070100	86.5020500000
1.21097900	86.5019700000
1.21125600	86.5018900000
1.21153300	86.5018100000
1.21181000	86.5017300000
1.21208700	86.5016600000
1.21236500	86.5015800000
1.21264100	86.3893900000
1.21291800	86.3893200000
1.21319600	86.3892400000
1.21347200	86.2770500000
1.21374900	86.1648700000
1.21402600	86.1647900000
1.21430200	85.9405000000
1.21457900	85.9404200000
1.21485500	85.7161300000
1.21485600	85.8282400000
1.21513200	85.6039400000
1.21540800	85.4917600000
1.21568500	85.3795700000
1.21596100	85.1552800000
1.21623800	85.1552000000
1.21651400	84.9309100000
1.21679100	84.9308300000
1.21706700	84.7065400000
1.21734400	84.5943500000
1.21762100	84.5942800000
1.21762100	84.7063800000
1.21789600	84.2578800000
1.21817300	84.2578000000
1.21844900	83.9214000000
1.21872600	83.9213200000
1.21872600	84.0334300000
1.21900200	83.6970300000
1.21900200	83.8091400000
1.21927800	83.4727400000
1.21955400	83.2484400000
1.21983100	83.2483700000
1.21983200	83.3604700000
1.22010700	83.0240700000
1.22038400	83.0240000000
1.22066000	82.7997000000
1.22093700	82.7996300000
1.22121300	82.5753300000
1.22121400	82.6874400000
1.22148900	82.3510400000
1.22149000	82.4631500000
1.22176500	82.1267500000
1.22204200	82.1266700000
1.22231800	81.9023800000
1.22231900	82.0144800000
1.22259400	81.6780800000
1.22287100	81.6780100000
1.22314700	81.4537100000
1.22314800	81.5658200000
1.22342400	81.3415300000
1.22370000	81.1172400000
1.22397600	80.8929400000
1.22425200	80.6686500000
1.22425200	80.7807600000
1.22425300	80.8928700000
1.22452700	80.3322500000
1.22480400	80.3321700000
1.22508200	80.3321000000
1.22535800	80.2199100000
1.22563500	80.1077300000
1.22591200	80.1076500000
1.22618900	80.1075700000
1.22646600	80.1074900000
1.22674300	79.9953100000
1.22702000	79.9952300000
1.22729700	79.9951500000
1.22757400	79.8829700000
1.22785100	79.8828900000
1.22812800	79.8828100000
1.22840500	79.7706300000
1.22868100	79.6584400000
1.22895900	79.6583600000
1.22923500	79.4340700000
1.22951200	79.4339900000
1.22978900	79.4339200000
1.23006600	79.4338400000
1.23034300	79.4337600000
1.23062100	79.4336800000
1.23089800	79.4336000000
1.23117500	79.4335300000
1.23145200	79.4334500000
1.23145300	79.5455600000
1.23173000	79.5454800000
1.23200700	79.5454000000
1.23228400	79.5453200000
1.23228500	79.6574300000
1.23228600	79.7695400000
1.23256300	79.7694600000
1.23284000	79.7693800000
1.23284100	79.8814900000
1.23311800	79.8814100000
1.23339500	79.8813400000
1.23339600	79.9934400000
1.23367300	79.9933700000
1.23395000	79.9932900000
1.23395100	80.1053900000
1.23422800	80.1053200000
1.23450500	80.1052400000
1.23450600	80.2173500000
1.23478300	80.2172700000
1.23506000	80.2171900000
1.23533700	80.2171100000
1.23533800	80.3292200000
1.23561500	80.3291400000
1.23561600	80.5533600000
1.23589400	80.5532800000
1.23589500	80.7775000000
1.23589500	80.8896000000
1.23617300	80.8895300000
1.23617400	81.1137400000
1.23617500	81.2258500000
1.23645200	81.2257700000
1.23645200	81.3378800000
1.23673000	81.3378000000
1.23673000	81.4499100000
1.23700700	81.4498300000
1.23700800	81.5619400000
1.23700900	81.6740400000
1.23728600	81.6739700000
1.23728600	81.7860700000
1.23728700	81.8981800000
1.23756400	81.8981000000
1.23756500	82.0102100000
1.23784200	82.0101300000
1.23784300	82.1222400000
1.23812000	82.1221600000
1.23812000	82.2342700000
1.23812100	82.3463800000
1.23839800	82.3463000000
1.23839900	82.4584100000
1.23840000	82.5705200000
1.23867700	82.5704400000
1.23867700	82.6825500000
1.23895500	82.6824700000
1.23895500	82.7945800000
1.23923200	82.7945000000
1.23923300	82.9066100000
1.23951000	82.9065300000
1.23951100	83.0186300000
1.23951100	83.1307400000
1.23978900	83.1306600000
1.23978900	83.2427700000
1.23979000	83.3548800000
1.24006700	83.3548000000
1.24006800	83.4669100000
1.24034500	83.4668300000
1.24034600	83.6910500000
1.24034700	83.8031500000
1.24062400	83.8030800000
1.24062500	84.0272900000
1.24062600	84.1394000000
1.24090300	84.1393200000
1.24090400	84.2514300000
1.24090400	84.3635400000
1.24118200	84.3634600000
1.24118200	84.4755700000
1.24145900	84.4754900000
1.24146000	84.5876000000
1.24173700	84.5875200000
1.24173800	84.8117300000
1.24201600	84.8116500000
1.24201700	85.0358700000
1.24229400	85.0357900000
1.24229500	85.2600100000
1.24257200	85.2599300000
1.24257400	85.4841400000
1.24285100	85.4840700000
1.24285200	85.5961700000
1.24285200	85.7082800000
1.24312900	85.7082000000
1.24313000	85.8203100000
1.24313100	85.9324200000
1.24340800	85.9323400000
1.24340800	86.0444500000
1.24368600	86.0443700000
1.24368700	86.2685900000
1.24368700	86.3806900000
1.24396500	86.3806200000
1.24396600	86.6048300000
1.24396700	86.7169400000
1.24424400	86.7168600000
1.24424400	86.8289700000
1.24452200	86.8288900000
1.24452200	86.9410000000
1.24479900	86.9409200000
1.24480100	87.1651300000
1.24507800	87.1650600000
1.24507800	87.2771600000
1.24507900	87.3892700000
1.24535600	87.3891900000
1.24535700	87.5013000000
1.24535800	87.6134100000
1.24563500	87.6133300000
1.24563500	87.7254400000
1.24563600	87.8375500000
1.24591300	87.8374700000
1.24591400	87.9495800000
1.24619100	87.9495000000
1.24619200	88.0616100000
1.24619200	88.1737100000
1.24646900	88.1736400000
1.24647000	88.2857400000
1.24647100	88.3978500000
1.24674800	88.3977700000
1.24702500	88.3976900000
1.24702600	88.5098000000
1.24730300	88.5097200000
1.24730400	88.7339400000
1.24758100	88.7338600000
1.24758200	88.8459700000
1.24785900	88.8458900000
1.24786000	88.9580000000
1.24813700	88.9579200000
1.24813800	89.0700300000
1.24813800	89.1821400000
1.24841500	89.1820600000
1.24841700	89.4062700000
1.24869400	89.4062000000
1.24869400	89.5183000000
1.24897200	89.5182300000
1.24897200	89.6303300000
1.24925000	89.6302600000
1.24925000	89.7423600000
1.24952700	89.7422800000
1.24952800	89.8543900000
1.24952900	89.9665000000
1.24980600	89.9664200000
1.25008300	89.9663400000
1.25008400	90.0784500000
1.25008400	90.1905600000
1.25036100	90.1904800000
1.25036200	90.3025900000
1.25036300	90.4147000000
1.25064000	90.4146200000
1.25064000	90.5267300000
1.25091800	90.5266500000
1.25091800	90.6387600000
1.25119600	90.6386800000
1.25147300	90.6386000000
1.25147300	90.7507100000
1.25175100	90.7506300000
1.25202800	90.7505500000
1.25202800	90.8626600000
1.25230600	90.8625800000
1.25230600	90.9746900000
1.25258300	90.9746100000
1.25258400	91.0867200000
1.25286100	91.0866400000
1.25286200	91.1987500000
1.25313900	91.1986700000
1.25314000	91.3107800000
1.25314000	91.4228900000
1.25341700	91.4228100000
1.25341800	91.5349200000
1.25369500	91.5348400000
1.25397200	91.5347600000
1.25397300	91.6468700000
1.25425000	91.6467900000
1.25452700	91.6467100000
1.25480500	91.6466400000
1.25508200	91.6465600000
1.25508300	91.7586700000
1.25536000	91.7585900000
1.25563700	91.7585100000
1.25591400	91.7584300000
1.25591500	91.8705400000
1.25619200	91.8704600000
1.25619300	91.9825700000
1.25647000	91.9824900000
1.25674700	91.9824100000
1.25674800	92.0945200000
1.25702500	92.0944400000
1.25730200	92.0943700000
1.25730300	92.2064700000
1.25758000	92.2064000000
1.25785700	92.2063200000
1.25813400	92.2062400000
1.25813500	92.3183500000
1.25841200	92.3182700000
1.25868900	92.3181900000
1.25869000	92.4303000000
1.25896700	92.4302200000
1.25924400	92.4301400000
1.25924500	92.5422500000
1.25952200	92.5421700000
1.25979900	92.5421000000
1.26007600	92.5420200000
1.26035400	92.5419400000
1.26063100	92.5418600000
1.26090800	92.5417900000
1.26118500	92.5417100000
1.26118600	92.6538200000
1.26146300	92.6537400000
1.26174000	92.6536600000
1.26174100	92.7657700000
1.26201800	92.7656900000
1.26229500	92.7656100000
1.26229600	92.8777200000
1.26257300	92.8776400000
1.26285000	92.8775600000
1.26285100	92.9896700000
1.26312800	92.9895900000
1.26340500	92.9895200000
1.26340600	93.1016200000
1.26368300	93.1015500000
1.26396000	92.9893600000
1.26423700	92.9892800000
1.26451400	92.9892100000
1.26479100	92.9891300000
1.26506900	92.9890500000
1.26534600	92.9889700000
1.26562300	92.9888900000
1.26590000	92.9888200000
1.26617700	92.9887400000
1.26645400	92.8765500000
1.26673100	92.8764800000
1.26700800	92.8764000000
1.26700900	92.9885100000
1.26728600	92.9884300000
1.26756300	92.9883500000
1.26784100	92.9882700000
1.26811800	92.9882000000
1.26839500	92.9881200000
1.26867200	92.8759300000
1.26894900	92.8758600000
1.26922600	92.8757800000
1.26950300	92.7635900000
1.26978000	92.7635100000
1.27005700	92.7634400000
1.27033400	92.7633600000
1.27061100	92.6511700000
1.27088800	92.6511000000
1.27116500	92.6510200000
1.27144200	92.5388300000
1.27171900	92.5387600000
1.27199500	92.4265700000
1.27227300	92.4264900000
1.27255000	92.4264200000
1.27282700	92.4263400000
1.27310400	92.3141500000
1.27338000	92.2019700000
1.27365700	92.2018900000
1.27393300	91.9776000000
1.27421100	91.9775200000
1.27421100	92.0896300000
1.27448700	91.7532300000
1.27476400	91.7531500000
1.27504000	91.5288600000
1.27531700	91.5287800000
1.27559300	91.4165900000
1.27587100	91.4165200000
1.27614800	91.4164400000
1.27642400	91.1921500000
1.27670100	91.1920700000
1.27697800	91.0798800000
1.27725500	91.0798100000
1.27753200	91.0797300000
1.27780800	90.8554300000
1.27780900	90.9675400000
1.27808500	90.7432500000
1.27836000	90.5189600000
1.27863600	90.2946600000
1.27891400	90.2945900000
1.27919000	90.0702900000
1.27946700	90.0702200000
1.27974300	89.9580300000
1.28002100	89.9579500000
1.28029700	89.8457700000
1.28057400	89.8456900000
1.28085200	89.8456100000
1.28085200	89.9577200000
1.28112900	89.8455400000
1.28251200	89.2846100000
1.28278900	89.2845300000
1.28306600	89.2844500000
1.28334300	89.1722700000
1.28362000	89.1721900000
1.28389700	89.1721100000
1.28417400	89.0599300000
1.28445100	89.0598500000
1.28472700	88.9476700000
1.28500500	88.9475900000
1.28528200	88.9475100000
1.28555900	88.9474300000
1.28583600	88.9473600000
1.28611300	88.9472800000
1.28639100	88.9472000000
1.28639100	89.0593100000
1.28666800	89.0592300000
1.28694600	89.0591500000
1.28722300	89.0590700000
1.28750000	89.0590000000
1.28777700	89.0589200000
1.28805400	89.0588400000
1.28833200	89.0587600000
1.28860900	89.0586900000
1.28888600	89.0586100000
1.28916300	89.0585300000
1.28916400	89.1706400000
1.28944100	89.1705600000
1.28944200	89.2826700000
1.28971900	89.2825900000
1.28972000	89.5068000000
1.28999700	89.5067300000
1.28999800	89.6188300000
1.29027500	89.6187600000
1.29027600	89.7308600000
1.29055300	89.7307900000
1.29083000	89.7307100000
1.29083100	89.8428200000
1.29110800	89.8427400000
1.29138500	89.8426600000
1.29166200	89.8425800000
1.29166300	89.9546900000
1.29194000	89.9546100000
1.29221700	89.9545400000
1.29249500	89.9544600000
1.29277200	89.9543800000
1.29277200	90.0664900000
1.29305000	90.0664100000
1.29332700	90.0663300000
1.29332700	90.1784400000
1.29360500	90.1783600000
1.29388200	90.1782800000
1.29388200	90.2903900000
1.29416000	90.2903100000
1.29416000	90.4024200000
1.29443700	90.4023400000
1.29443900	90.6265600000
1.29471600	90.6264800000
1.29471600	90.7385900000
1.29499400	90.7385100000
1.29499400	90.8506200000
1.29527200	90.8505400000
1.29527200	90.9626500000
1.29554900	90.9625700000
1.29555000	91.0746800000
1.29582700	91.0746000000
1.29582800	91.1867100000
1.29610500	91.1866300000
1.29610600	91.2987400000
1.29638300	91.2986600000
1.29666000	91.2985800000
1.29666100	91.4106900000
1.29693800	91.4106100000
1.29721500	91.4105300000
1.29721600	91.5226400000
1.29749300	91.5225600000
1.29777000	91.5224900000
1.29804700	91.5224100000
1.29832400	91.5223300000
1.29860200	91.5222500000
1.29887900	91.5221800000
1.29915600	91.5221000000
1.29943300	91.5220200000
1.29971000	91.5219400000
1.29998800	91.5218600000
1.30026400	91.4096800000
1.30054100	91.4096000000
1.30081900	91.4095200000
1.30109500	91.2973400000
1.30137200	91.1851500000
1.30164800	91.0729700000
1.30192600	91.0728900000
1.30220200	90.9607100000
1.30247900	90.8485200000
1.30275500	90.7363400000
1.30275600	90.8484400000
1.30303100	90.3999400000
1.30330800	90.3998600000
1.30358400	90.2876700000
1.30386100	90.1754900000
1.30413800	90.0633000000
1.30441400	89.9511200000
1.30469100	89.8389300000
1.30496700	89.6146400000
1.30496700	89.7267500000
1.30496800	89.8388500000
1.30524500	89.8387800000
1.30551700	88.8297300000
1.30579300	88.7175500000
1.30607000	88.6053600000
1.30607100	88.7174700000
1.30634500	88.1568500000
1.30634500	88.2689600000
1.30634600	88.3810700000
1.30662000	87.8204500000
1.30689600	87.5961600000
1.30689700	87.7082700000
1.30689700	87.8203800000
1.30716900	86.9234400000
1.30744700	86.9233600000
1.30772200	86.5869600000
1.30799800	86.3626700000
1.30799800	86.4747800000
1.30799900	86.5868800000
1.30827300	85.9141600000
1.30854900	85.8019800000
1.30855000	85.9140800000
1.30855000	86.0261900000
1.30882300	85.2413600000
1.30910000	85.2412800000
1.30937500	84.7927800000
1.30937600	84.9048800000
1.30965000	84.3442700000
1.30992600	84.1199800000
1.30992600	84.2320800000
1.30992700	84.3441900000
1.31020000	83.5593600000
1.31020100	83.7835800000
1.31020200	83.8956800000
1.31047400	82.9987500000
1.31075100	82.8865600000
1.31075100	82.9986700000
1.31075200	83.1107800000
1.31102500	82.4380500000
1.31102600	82.5501600000
1.31102700	82.6622700000
1.31130100	82.2137600000
1.31130200	82.3258700000
1.31157700	81.8773600000
1.31157700	81.9894700000
1.31185300	81.6530700000
1.31185300	81.7651800000
1.31212900	81.4287800000
1.31212900	81.5408800000
1.31240400	81.0923800000
1.31240400	81.2044800000
1.31267900	80.7559800000
1.31295600	80.6437900000
1.31295600	80.7559000000
1.31323100	80.3073900000
1.31323200	80.4195000000
1.31323200	80.5316100000
1.31350700	80.0831000000
1.31378400	79.9709100000
1.31406000	79.8587300000
1.31433700	79.8586500000
1.31461200	79.4101400000
1.31461300	79.5222500000
1.31488800	79.1858500000
1.31516500	79.0736600000
1.31516500	79.1857700000
1.31544100	78.9614800000
1.31571800	78.8492900000
1.31599500	78.8492200000
1.31627200	78.7370300000
1.31654900	78.7369500000
1.31682500	78.6247700000
1.31710300	78.6246900000
1.31710300	78.7368000000
1.31738000	78.7367200000
1.31738100	78.8488300000
1.31765800	78.8487500000
1.31793500	78.8486700000
1.31821300	78.8486000000
1.31849000	78.8485200000
1.31849000	78.9606200000
1.31876800	78.9605500000
1.31904500	78.9604700000
1.31904500	79.0725800000
1.31904600	79.1846800000
1.31932300	79.1846100000
1.31932400	79.2967100000
1.31960100	79.2966400000
1.31960200	79.4087400000
1.31987900	79.4086700000
1.31988000	79.5207700000
1.32015700	79.5207000000
1.32015700	79.6328000000
1.32043500	79.6327300000
1.32043500	79.7448300000
1.32043600	79.8569400000
1.32071300	79.8568600000
1.32071400	79.9689700000
1.32099100	79.9688900000
1.32126800	79.9688200000
1.32154500	79.9687400000
1.32182200	79.9686600000
1.32210000	79.9685800000
1.32237600	79.8564000000
1.32265200	79.6321000000
1.32292700	79.2957000000
1.32292900	79.6320300000
1.32293000	79.7441300000
1.32293100	79.8562400000
1.32320200	78.7350900000
1.32347800	78.5108000000
1.32347800	78.6229000000
1.32347900	78.7350100000
1.32375000	77.7259700000
1.32402600	77.5016700000
1.32402800	77.7258900000
1.32402800	77.8380000000
1.32402900	77.9501000000
1.32429700	76.3805200000
1.32457300	76.1562300000
1.32457500	76.4925500000
1.32457600	76.6046600000
1.32457600	76.7167700000
1.32484300	74.8108600000
1.32484500	75.1471800000
1.32484600	75.2592900000
1.32484600	75.3714000000
1.32511500	73.8018200000
1.32538900	73.3533100000
1.32539100	73.5775300000
1.32539100	73.6896300000
1.32539200	73.8017400000
1.32565900	72.0079400000
1.32592800	70.5504700000
1.32620100	69.7656400000
1.32620400	70.3261800000
1.32620500	70.5503900000
1.32620600	70.6625000000
1.32620700	70.7746100000
1.32646200	66.8507700000
1.32646700	67.7476300000
1.32647000	68.1960600000
1.32647100	68.4202700000
1.32647100	68.5323800000
1.32673100	65.2811900000
1.32700200	64.1600300000
1.32700500	64.8326800000
1.32700700	65.1690000000
1.32700800	65.3932200000
1.32700900	65.5053200000
1.32726400	61.4693800000
1.32726800	62.2541300000
1.32727000	62.5904500000
1.32727100	62.8146700000
1.32727200	62.9267700000
1.32752900	59.3392600000
1.32780300	58.6665400000
1.32780500	59.0028600000
1.32780600	59.2270700000
1.32780600	59.3391800000
1.32807200	57.2090600000
1.32807200	57.3211700000
1.32832900	53.5094400000
1.32833500	54.6305100000
1.32833800	55.1910500000
1.32833900	55.4152600000
1.32834000	55.5273700000
1.32834000	55.6394800000
1.32860200	52.8367100000
1.32886100	49.5855200000
1.32886400	50.1460600000
1.32886600	50.4823800000
1.32886700	50.5944900000
1.32886700	50.7066000000
1.32913400	48.8006900000
1.32939600	46.1100300000
1.32939900	46.6705700000
1.32940100	46.8947900000
1.32940100	47.0068900000
1.32940200	47.1190000000
1.32966300	44.2041300000
1.32966600	44.7646700000
1.32966700	44.9888800000
1.32966800	45.1009900000
1.32966900	45.2131000000
1.32992800	42.0740100000
1.32993400	43.0829800000
1.32993600	43.5314100000
1.32993800	43.7556200000
1.32993800	43.8677300000
1.32993900	43.9798400000
1.33019200	39.6075700000
1.33019600	40.2802100000
1.33019700	40.6165400000
1.33019900	40.8407500000
1.33019900	40.9528600000
1.33045900	37.8137700000
1.33046100	38.1501000000
1.33046200	38.2622000000
1.33046200	38.3743100000
1.33072500	35.6836500000
1.33072700	36.1320800000
1.33072800	36.3563000000
1.33072900	36.4684100000
1.33072900	36.5805100000
1.33098700	32.9930000000
1.33098900	33.4414300000
1.33099100	33.6656400000
1.33099100	33.7777500000
1.33099200	33.8898600000
1.33125800	31.9839500000
1.33125900	32.0960600000
1.33152500	30.0780500000
1.33152600	30.1901600000
1.33152600	30.3022600000
1.33180300	30.3021900000
1.33206600	27.7236400000
1.33206800	27.9478500000
1.33206800	28.0599600000
1.33233400	26.0419500000
1.33260800	25.3692200000
1.33260800	25.4813300000
1.33260900	25.5934400000
1.33287000	22.6785700000
1.33287100	22.9027800000
1.33287200	23.0148900000
1.33287200	23.1270000000
1.33313200	19.9879100000
1.33340900	19.8757300000
1.33340900	19.9878300000
1.33368700	19.9877600000
1.33368700	20.0998600000
1.33396500	20.0997900000
1.33476800	14.9426100000
1.33504200	14.3820000000
1.33558800	12.9244400000
1.33640300	9.8973090000
1.33668000	9.8972310000
1.33668100	10.0093400000
1.33668100	10.1214500000
1.33695200	9.0002940000
1.33997700	4.6272490000
1.34080400	3.7301560000
1.34190900	3.0572000000
1.34273800	2.6085380000
1.34495100	1.7110560000
1.34633500	1.3743460000
1.34661100	1.2621610000
1.34688800	1.2620830000
1.34716500	1.1498980000
1.34771900	1.0376350000
1.34965700	0.7007687000
1.34993500	0.7006910000
1.35021200	0.7006133000
1.35048800	0.5884281000
1.35076600	0.5883505000
1.35104200	0.4761653000
1.35131900	0.4760876000
1.35159700	0.4760099000
1.35187300	0.3638248000
1.35215000	0.3637471000
1.35242800	0.3636694000
1.35270500	0.3635917000
1.35298200	0.3635140000
1.35325900	0.3634363000
1.35353600	0.2512512000
1.35381300	0.2511735000
1.35409000	0.2510958000
1.35436700	0.2510181000
1.35464400	0.2509404000
1.35492200	0.2508628000
1.35519900	0.2507851000
1.35547600	0.2507074000
1.35575300	0.1385222000
1.35603000	0.1384445000
1.35630700	0.1383669000
1.35658400	0.1382892000
1.35686100	0.1382115000
1.35713900	0.1381338000
1.35741600	0.1380561000
1.35769300	0.1379784000
1.35797000	0.1379007000
1.35824700	0.1378230000
1.35852400	0.0256378800
1.35880100	0.0255601900
1.35907800	0.0254825000
1.35935600	0.0254048100
1.35963300	0.0253271200
1.35991000	0.0252494300
1.36018700	0.0251717300
1.36046400	0.0250940400
1.36074200	0.0250163500
1.36101900	0.0249386600
1.36129600	0.0248609700
1.36157300	0.0247832800
1.36185000	0.0247055900
1.36212800	0.0246279000
1.36240500	0.0245502100
1.36268200	0.0244725200
1.36295900	0.0243948300
1.36323600	0.0243171400
1.36351400	0.0242394500
1.36379100	0.0241617600
1.36406800	0.0240840700
1.36434500	-0.0881010700
1.36462200	-0.0881787600
1.36489900	-0.0882564500
1.36517600	-0.0883341400
1.36545300	-0.0884118300
1.36573100	-0.0884895200
1.36600800	-0.0885672200
1.36628500	-0.0886449100
1.36656200	-0.0887226000
1.36683900	-0.0888002900
1.36711700	-0.0888779800
1.36739400	-0.0889556700
1.36767100	-0.0890333600
1.36794800	-0.0891110500
1.36822500	-0.0891887400
1.36850300	-0.0892664300
1.36878000	-0.0893441200
1.36905700	-0.0894218100
1.36933400	-0.0894995000
1.36961100	-0.0895771900
1.36988900	-0.0896548800
1.37016600	-0.0897325700
1.37044300	-0.0898102600
1.37044400	0.0222971800
1.37072100	0.0222194900
1.37099800	0.0221418000
1.37127500	0.0220641100
1.37155200	0.0219864200
1.37183000	0.0219087300
1.37210600	-0.0902764100
1.37238300	-0.0903541000
1.37266100	-0.0904317900
1.37293800	-0.0905094800
1.37321500	-0.0905871700
1.37321600	0.0215202800
1.37349300	0.0214425900
1.37377000	0.0213649000
1.37404700	0.0212872100
1.37432400	0.0212095200
1.37460200	0.0211318300
1.37487900	0.0210541400
1.37515600	0.0209764500
1.37543300	0.0208987600
1.37571000	0.0208210600
1.37598800	0.0207433700
1.37626500	0.0206656800
1.37654200	0.0205879900
1.37681900	0.0205103000
1.37709600	0.0204326100
1.37737300	-0.0917525300
1.37737400	0.0203549200
1.37765100	0.0202772300
1.37792700	-0.0919079100
1.37820500	-0.0919856000
1.37848200	-0.0920632900
1.37875900	-0.0921409800
1.37903600	-0.0922186700
1.37903700	0.0198887800
1.37931400	0.0198110900
1.37959100	0.0197334000
1.37986800	0.0196557100
1.38014600	0.0195780200
1.38042300	0.0195003300
1.38070000	0.0194226300
1.38097700	0.0193449400
1.38125400	0.0192672500
1.38153200	0.0191895600
1.38180900	0.0191118700
1.38208600	0.0190341800
1.38236300	0.0189564900
1.38264000	0.0188788000
1.38264100	0.1309863000
1.38291800	0.0188011100
1.38319500	0.0187234200
1.38347200	0.0186457300
1.38374900	0.0185680400
1.38402600	0.0184903500
1.38430400	0.0184126600
1.38458100	0.0183349700
1.38485800	0.0182572800
1.38513500	0.0181795900
1.38541200	0.0181019000
1.38569000	0.0180242100
1.38596600	-0.0941609300
1.38624300	-0.0942386200
1.38652100	-0.0943163200
1.38652100	0.0177911300
1.38679800	0.0177134400
1.38707600	0.0176357500
1.38735300	0.0175580600
1.38763000	0.0174803700
1.38790700	0.0174026800
1.38818400	0.0173249900
1.38846200	0.0172473000
1.38873900	0.0171696100
1.38901600	0.0170919200
1.38929300	0.0170142300
1.38957000	0.0169365400
1.38984800	0.0168588500
1.39012500	0.0167811600
1.39040200	0.0167034700
1.39067900	0.0166257800
1.39095600	0.0165480900
1.39123400	0.0164703900
1.39151100	0.0163927000
1.39178800	0.0163150100
1.39206500	0.0162373200
1.39234200	0.0161596300
1.39262000	0.0160819400
1.39289600	-0.0961032000
1.39317300	-0.0961808900
1.39345100	-0.0962585800
1.39372800	-0.0963362700
1.39372800	0.0157711800
1.39400600	0.0156934900
1.39428300	0.0156158000
1.39456000	0.0155381100
1.39483700	-0.0966470300
1.39483700	0.0154604200
1.39511400	0.0153827300
1.39539200	0.0153050400
1.39566900	0.0152273500
1.39594500	-0.0969577900
1.39622300	-0.0970354800
1.39650000	-0.0971131700
1.39677700	-0.0971908700
1.39705400	-0.0972685600
1.39705500	0.0148388900
1.39733200	0.0147612000
1.39760900	0.0146835100
1.39788600	0.0146058200
1.39816400	0.0145281300
1.39844000	-0.0976570100
1.39871700	-0.0977347000
1.39899500	-0.0978123900
1.39899500	0.0142950600
1.39927200	0.0142173700
1.39955000	0.0141396800
1.39982700	0.0140619900
1.40010400	0.0139843000
1.40038100	0.0139066100
1.40065800	0.0138289200
1.40093600	0.0137512300
1.40121300	0.0136735400
1.40149000	0.0135958400
1.40176700	0.0135181500
1.40204400	0.0134404600
1.40232200	0.0133627700
1.40259900	0.0132850800
1.40287600	0.0132073900
1.40315300	0.0131297000
1.40343000	0.0130520100
1.40370700	-0.0991331300
1.40398400	-0.0992108200
1.40426100	-0.0992885100
1.40453900	-0.0993662000
1.40481600	-0.0994438900
1.40481600	0.0126635600
1.40509400	0.0125858700
1.40537100	0.0125081800
1.40564800	0.0124304900
1.40592500	0.0123528000
1.40620200	0.0122751100
1.40648000	0.0121974100
1.40675700	0.0121197200
1.40703400	0.0120420300
1.40731100	0.0119643400
1.40758800	-0.1002208000
1.40786500	-0.1002985000
1.40786600	0.0118089600
1.40814300	0.0117312700
1.40842000	0.0116535800
1.40869700	0.0115758900
1.40897400	-0.1006092000
1.40925100	-0.1006869000
1.40925200	0.0114205100
1.40952900	0.0113428200
1.40980600	0.0112651300
1.41008300	0.0111874400
1.41036000	0.0111097500
1.41063800	0.0110320600
1.41091500	0.0109543700
1.41119200	0.0108766800
1.41146900	0.0107989900
1.41174600	0.0107212900
1.41202400	0.0106436000
1.41230100	0.0105659100
1.41257800	0.0104882200
1.41285500	-0.1016969000
1.41313200	-0.1017746000
1.41340900	-0.1018523000
1.41368600	-0.1019300000
1.41396300	-0.1020077000
1.41396400	0.0100997700
1.41424100	0.0100220800
1.41451800	0.0099443890
1.41479600	0.0098666990
1.41507300	0.0097890080
1.41535000	0.0097113170
1.41562700	0.0096336270
1.41590400	0.0095559360
1.41618200	0.0094782460
1.41645900	0.0094005550
1.41673600	0.0093228650
1.41701300	-0.1028623000
1.41729000	-0.1029400000
1.41729000	0.0091674840
1.41756800	0.0090897930
1.41784500	0.0090121030
1.41812100	-0.1031730000
1.41839900	-0.1032507000
1.41867600	-0.1033284000
1.41895300	-0.1034061000
1.41895400	0.0087013400
1.41923100	0.0086236500
1.41950800	0.0085459590
1.41978500	0.0084682690
1.42006200	0.0083905780
1.42033900	-0.1037946000
1.42061600	-0.1038723000
1.42089300	-0.1039499000
1.42117100	-0.1040276000
1.42117100	0.0080798160
1.42144800	0.0080021260
1.42172600	0.0079244350
1.42200300	0.0078467450
1.42228000	0.0077690540
1.42255700	0.0076913630
1.42283400	0.0076136730
1.42311200	0.0075359820
1.42338900	0.0074582920
1.42366600	0.0073806010
1.42394300	0.0073029110
1.42422000	0.0072252200
1.42449800	0.0071475300
1.42477500	0.0070698390
1.42505200	0.0069921490
1.42532900	0.0069144580
1.42560600	0.0068367680
1.42588400	0.0067590770
1.42616100	0.0066813860
1.42643800	0.0066036960
1.42671500	0.0065260050
1.42699200	0.0064483150
1.42727000	0.0063706240
1.42754700	0.0062929340
1.42782400	0.0062152430
1.42810100	0.0061375530
1.42837800	0.0060598620
1.42865600	0.0059821720
1.42893300	0.0059044810
1.42921000	0.0058267900
1.42948700	0.0057491000
1.42976400	0.0056714090
1.43004200	0.0055937190
1.43031900	0.0055160280
1.43059600	0.0054383380
1.43087300	-0.1067468000
1.43115000	-0.1068245000
1.43115000	0.0052829570
1.43142800	0.0052052660
1.43170500	0.0051275760
1.43198200	0.0050498850
1.43225900	-0.1071353000
1.43225900	0.0049721950
1.43253600	0.0048945040
1.43281400	0.0048168130
1.43309100	0.0047391230
1.43336800	0.0046614320
1.43364500	0.0045837420
1.43392200	0.0045060510
1.43419900	-0.1076791000
1.43420000	0.0044283610
1.43447700	0.0043506700
1.43475400	0.0042729800
1.43503100	0.0041952890
1.43530800	0.0041175990
1.43558600	0.0040399080
1.43586300	0.0039622180
1.43614000	0.0038845270
1.43641700	0.0038068360
1.43669400	0.0037291460
1.43697200	0.0036514550
1.43724900	0.0035737650
1.43752600	0.0034960740
1.43780300	0.0034183840
1.43808000	0.0033406930
1.43835800	0.0032630030
1.43863500	0.0031853120
1.43891200	0.0031076220
1.43918900	0.0030299310
1.43946600	0.0029522410
1.43974400	0.0028745500
1.44002100	0.0027968590
1.44029800	0.0027191690
1.44057500	0.0026414780
1.44085200	0.0025637880
1.44113000	0.0024860970
1.44140700	0.0024084070
1.44168400	0.0023307160
1.44196100	0.0022530260
1.44223800	0.0021753350
1.44251600	0.0020976450
1.44279300	0.0020199540
1.44279300	0.1141274000
1.44307100	0.1140497000
1.44334700	0.0018645730
1.44334800	0.1139720000
1.44362500	0.1138943000
1.44390200	0.0017091920
1.44417900	0.0016315010
1.44445600	0.0015538110
1.44473300	0.0014761200
1.44501000	0.0013984300
1.44501000	0.0013984300
